Data from 01 0.5 mM K2Cr2O7 1 M H2SO4 _Absorbance_15-44-01-900.txt Node
Date: Thu Dec 09 15:44:01 EST 2021
User: kwabilab-user
Spectrometer: HDX00518
Trigger mode: 0
Integration Time (sec): 5.000000E-2
Scans to average: 50
Nonlinearity correction enabled: false
Boxcar width: 0
Storing dark spectrum: false
XAxis mode: Wavelengths
Number of Pixels in Spectrum: 2068
>>>>>Begin Spectral Data<<<<<
195.27	0.3945
195.642	0.0297
196.014	0.1433
196.386	0.2334
196.758	0.0083
197.129	0.0208
197.501	0.0568
197.872	0.0984
198.244	0.1412
198.615	0.1468
198.986	0.1461
199.357	0.1184
199.728	0.1309
200.099	0.1442
200.47	0.1494
200.841	0.1373
201.212	0.1425
201.582	0.1347
201.953	0.133
202.323	0.1389
202.694	0.1437
203.064	0.1185
203.434	0.1332
203.804	0.14
204.174	0.1467
204.544	0.1359
204.914	0.1525
205.284	0.1325
205.653	0.1347
206.023	0.146
206.393	0.1501
206.762	0.1268
207.131	0.146
207.501	0.1442
207.87	0.1541
208.239	0.1424
208.608	0.1592
208.977	0.1509
209.346	0.1799
209.715	0.1498
210.083	0.1551
210.452	0.1641
210.82	0.1539
211.189	0.1716
211.557	0.1594
211.925	0.1356
212.294	0.1753
212.662	0.1819
213.03	0.2057
213.398	0.1815
213.766	0.1938
214.133	0.2046
214.501	0.2155
214.869	0.2007
215.236	0.2053
215.604	0.2205
215.971	0.2456
216.338	0.2669
216.705	0.2645
217.072	0.2806
217.439	0.2833
217.806	0.3016
218.173	0.3151
218.54	0.3509
218.907	0.38
219.273	0.403
219.64	0.4355
220.006	0.4888
220.373	0.4905
220.739	0.562
221.105	0.5939
221.471	0.5991
221.837	0.6386
222.203	0.689
222.569	0.72
222.935	0.7616
223.3	0.7835
223.666	0.8078
224.031	0.8481
224.397	0.8701
224.762	0.9103
225.127	0.9363
225.493	0.9538
225.858	0.9471
226.223	0.968
226.588	0.99
226.952	0.9965
227.317	1.035
227.682	1.0198
228.046	1.018
228.411	1.0321
228.775	1.0427
229.14	1.0311
229.504	1.0364
229.868	1.0382
230.232	1.0303
230.596	1.0275
230.96	1.0386
231.324	1.0222
231.688	1.0174
232.052	1.0213
232.415	1.0011
232.779	1.0077
233.142	0.9981
233.505	0.9917
233.869	0.9849
234.232	0.9788
234.595	0.9706
234.958	0.9616
235.321	0.9552
235.684	0.9479
236.047	0.9388
236.409	0.9355
236.772	0.9235
237.134	0.9182
237.497	0.9099
237.859	0.9097
238.222	0.9059
238.584	0.8992
238.946	0.8937
239.308	0.8873
239.67	0.8841
240.032	0.8809
240.393	0.8773
240.755	0.8673
241.117	0.8742
241.478	0.8622
241.84	0.861
242.201	0.8561
242.562	0.8521
242.924	0.8552
243.285	0.8481
243.646	0.8496
244.007	0.8451
244.368	0.8481
244.728	0.8423
245.089	0.8421
245.45	0.8416
245.81	0.8421
246.171	0.8418
246.531	0.843
246.891	0.8399
247.252	0.8366
247.612	0.8447
247.972	0.8402
248.332	0.8416
248.692	0.841
249.051	0.842
249.411	0.8418
249.771	0.8402
250.13	0.8439
250.49	0.8409
250.849	0.8467
251.208	0.8433
251.568	0.8451
251.927	0.8459
252.286	0.8471
252.645	0.8473
253.004	0.8509
253.363	0.8516
253.721	0.8497
254.08	0.8535
254.439	0.8508
254.797	0.8536
255.155	0.8544
255.514	0.855
255.872	0.854
256.23	0.8575
256.588	0.8563
256.946	0.8568
257.304	0.8547
257.662	0.8616
258.02	0.859
258.377	0.8594
258.735	0.8597
259.093	0.8615
259.45	0.8601
259.807	0.8595
260.165	0.8655
260.522	0.8608
260.879	0.8601
261.236	0.8595
261.593	0.8617
261.95	0.8621
262.306	0.8617
262.663	0.859
263.02	0.8624
263.376	0.8593
263.733	0.8612
264.089	0.8585
264.445	0.8559
264.802	0.8575
265.158	0.8564
265.514	0.8589
265.87	0.856
266.226	0.8527
266.581	0.8541
266.937	0.857
267.293	0.8522
267.648	0.8529
268.004	0.8516
268.359	0.848
268.714	0.8487
269.07	0.848
269.425	0.8444
269.78	0.8427
270.135	0.8425
270.49	0.8395
270.844	0.8407
271.199	0.8384
271.554	0.8372
271.908	0.8368
272.263	0.8348
272.617	0.8337
272.972	0.8305
273.326	0.8273
273.68	0.8247
274.034	0.8233
274.388	0.8221
274.742	0.8186
275.096	0.8211
275.45	0.8156
275.803	0.8144
276.157	0.8085
276.51	0.8068
276.864	0.8058
277.217	0.8019
277.571	0.8011
277.924	0.7943
278.277	0.7949
278.63	0.7876
278.983	0.7852
279.336	0.7817
279.688	0.7739
280.041	0.7716
280.394	0.7678
280.746	0.7611
281.099	0.7588
281.451	0.7531
281.803	0.747
282.156	0.7435
282.508	0.7368
282.86	0.731
283.212	0.725
283.564	0.7209
283.916	0.7144
284.267	0.7101
284.619	0.7019
284.971	0.6966
285.322	0.6896
285.673	0.6824
286.025	0.6766
286.376	0.6703
286.727	0.663
287.078	0.6533
287.429	0.6468
287.78	0.6383
288.131	0.6318
288.482	0.6229
288.833	0.616
289.183	0.6078
289.534	0.5992
289.884	0.5923
290.235	0.5833
290.585	0.5765
290.935	0.5682
291.285	0.5599
291.635	0.5518
291.985	0.5426
292.335	0.5353
292.685	0.5263
293.035	0.518
293.384	0.5108
293.734	0.501
294.083	0.4939
294.433	0.4851
294.782	0.4766
295.131	0.4686
295.48	0.4604
295.829	0.4523
296.179	0.4448
296.527	0.4374
296.876	0.4293
297.225	0.421
297.574	0.4141
297.922	0.4065
298.271	0.3994
298.619	0.3915
298.968	0.3856
299.316	0.3783
299.664	0.3713
300.012	0.3655
300.36	0.3587
300.708	0.3518
301.056	0.3461
301.404	0.3387
301.752	0.3343
302.099	0.3278
302.447	0.3227
302.794	0.3171
303.142	0.3125
303.489	0.3075
303.836	0.3022
304.183	0.2974
304.531	0.2937
304.878	0.2886
305.224	0.2854
305.571	0.2809
305.918	0.2768
306.265	0.2728
306.611	0.27
306.958	0.2673
307.304	0.2635
307.651	0.2608
307.997	0.2583
308.343	0.2564
308.689	0.2534
309.035	0.2505
309.381	0.2496
309.727	0.2481
310.073	0.2463
310.419	0.2451
310.764	0.2429
311.11	0.2423
311.455	0.2416
311.801	0.2408
312.146	0.2398
312.491	0.2402
312.837	0.2394
313.182	0.2393
313.527	0.2402
313.872	0.2401
314.216	0.2401
314.561	0.2413
314.906	0.2412
315.251	0.2417
315.595	0.2424
315.94	0.244
316.284	0.245
316.628	0.2465
316.972	0.2477
317.317	0.2495
317.661	0.251
318.005	0.2523
318.348	0.255
318.692	0.2574
319.036	0.259
319.38	0.2613
319.723	0.264
320.067	0.2658
320.41	0.2689
320.754	0.2709
321.097	0.2747
321.44	0.277
321.783	0.2801
322.126	0.2834
322.469	0.2862
322.812	0.2899
323.155	0.293
323.498	0.297
323.84	0.3
324.183	0.3036
324.525	0.3075
324.868	0.311
325.21	0.315
325.552	0.3185
325.894	0.3229
326.236	0.3253
326.578	0.3299
326.92	0.3335
327.262	0.3372
327.604	0.3412
327.946	0.3452
328.287	0.3488
328.629	0.3532
328.97	0.3571
329.312	0.3613
329.653	0.3651
329.994	0.3694
330.335	0.3743
330.676	0.3781
331.017	0.3826
331.358	0.3872
331.699	0.3919
332.04	0.3961
332.38	0.4002
332.721	0.4036
333.061	0.4078
333.402	0.412
333.742	0.4165
334.083	0.4202
334.423	0.4236
334.763	0.427
335.103	0.4309
335.443	0.4344
335.783	0.4378
336.123	0.4415
336.462	0.4451
336.802	0.4483
337.141	0.4519
337.481	0.4552
337.82	0.4587
338.16	0.4618
338.499	0.4647
338.838	0.4701
339.177	0.4731
339.516	0.4753
339.855	0.4798
340.194	0.4827
340.533	0.4857
340.872	0.4889
341.21	0.4923
341.549	0.4929
341.887	0.4966
342.226	0.4988
342.564	0.501
342.902	0.5011
343.24	0.5038
343.578	0.5053
343.916	0.5062
344.254	0.5083
344.592	0.5089
344.93	0.5109
345.268	0.5119
345.605	0.5124
345.943	0.5136
346.28	0.5145
346.618	0.5154
346.955	0.5159
347.292	0.5179
347.629	0.5185
347.966	0.5203
348.303	0.5201
348.64	0.52
348.977	0.521
349.314	0.5209
349.65	0.5212
349.987	0.5226
350.324	0.5213
350.66	0.5217
350.996	0.5213
351.333	0.5202
351.669	0.5207
352.005	0.5183
352.341	0.5168
352.677	0.5162
353.013	0.5139
353.349	0.5126
353.685	0.5104
354.02	0.5087
354.356	0.5061
354.691	0.505
355.027	0.503
355.362	0.5003
355.697	0.4991
356.033	0.4978
356.368	0.4953
356.703	0.4926
357.038	0.4914
357.373	0.4886
357.707	0.4883
358.042	0.4866
358.377	0.4836
358.711	0.4818
359.046	0.4797
359.38	0.4768
359.715	0.4759
360.049	0.473
360.383	0.4698
360.717	0.4672
361.051	0.464
361.385	0.4609
361.719	0.4582
362.053	0.4526
362.387	0.4503
362.72	0.4467
363.054	0.4424
363.387	0.4388
363.721	0.434
364.054	0.4309
364.387	0.4261
364.721	0.423
365.054	0.4191
365.387	0.4137
365.72	0.411
366.053	0.4087
366.385	0.4042
366.718	0.4015
367.051	0.3985
367.383	0.3945
367.716	0.3908
368.048	0.3886
368.381	0.3855
368.713	0.3816
369.045	0.3791
369.377	0.3772
369.709	0.3737
370.041	0.3694
370.373	0.367
370.705	0.3638
371.037	0.3596
371.368	0.3562
371.7	0.3518
372.031	0.3485
372.363	0.3438
372.694	0.3404
373.025	0.3364
373.356	0.3318
373.688	0.3268
374.019	0.3225
374.35	0.3177
374.68	0.3141
375.011	0.3091
375.342	0.3045
375.673	0.3002
376.003	0.2976
376.334	0.2923
376.664	0.2883
376.995	0.2852
377.325	0.2812
377.655	0.2786
377.985	0.2743
378.315	0.2716
378.645	0.2683
378.975	0.2649
379.305	0.2625
379.635	0.2592
379.964	0.2566
380.294	0.2532
380.623	0.2512
380.953	0.2471
381.282	0.2445
381.611	0.2411
381.941	0.2391
382.27	0.2354
382.599	0.2324
382.928	0.2286
383.257	0.2259
383.585	0.2221
383.914	0.2184
384.243	0.2154
384.571	0.2116
384.9	0.2081
385.228	0.2042
385.557	0.2004
385.885	0.197
386.213	0.194
386.541	0.1902
386.869	0.1868
387.197	0.1833
387.525	0.1787
387.853	0.1762
388.181	0.1728
388.508	0.1704
388.836	0.1661
389.164	0.1636
389.491	0.161
389.818	0.1585
390.146	0.1556
390.473	0.1528
390.8	0.151
391.127	0.1483
391.454	0.146
391.781	0.1438
392.108	0.1414
392.435	0.1392
392.761	0.1378
393.088	0.1354
393.415	0.1335
393.741	0.1316
394.067	0.1298
394.394	0.1276
394.72	0.126
395.046	0.1243
395.372	0.1223
395.698	0.1209
396.024	0.1186
396.35	0.1161
396.676	0.1142
397.001	0.1123
397.327	0.1098
397.653	0.1085
397.978	0.1056
398.303	0.1044
398.629	0.1035
398.954	0.1016
399.279	0.1003
399.604	0.098
399.929	0.0963
400.254	0.0954
400.579	0.0936
400.904	0.0924
401.229	0.0905
401.553	0.0891
401.878	0.0885
402.202	0.087
402.527	0.0857
402.851	0.0845
403.175	0.0838
403.5	0.0827
403.824	0.0816
404.148	0.0811
404.472	0.0806
404.796	0.0796
405.119	0.079
405.443	0.0783
405.767	0.0778
406.09	0.0774
406.414	0.0764
406.737	0.076
407.061	0.0757
407.384	0.0756
407.707	0.0751
408.03	0.0751
408.353	0.0749
408.676	0.0745
408.999	0.0744
409.322	0.0739
409.645	0.0734
409.968	0.0735
410.29	0.0737
410.613	0.0727
410.935	0.0732
411.258	0.0731
411.58	0.0729
411.902	0.0725
412.224	0.0733
412.546	0.0731
412.868	0.0735
413.19	0.0732
413.512	0.0734
413.834	0.0731
414.156	0.0732
414.477	0.0727
414.799	0.0724
415.121	0.0737
415.442	0.0733
415.763	0.0736
416.085	0.0742
416.406	0.0736
416.727	0.0731
417.048	0.0745
417.369	0.0741
417.69	0.0744
418.011	0.0747
418.331	0.0749
418.652	0.075
418.973	0.0748
419.293	0.075
419.614	0.0753
419.934	0.0765
420.254	0.0761
420.574	0.0762
420.895	0.0766
421.215	0.0766
421.535	0.0768
421.855	0.0769
422.174	0.0775
422.494	0.0771
422.814	0.078
423.134	0.0783
423.453	0.0787
423.773	0.0785
424.092	0.0792
424.411	0.0786
424.731	0.0797
425.05	0.0796
425.369	0.0796
425.688	0.0802
426.007	0.0804
426.326	0.0811
426.644	0.081
426.963	0.0816
427.282	0.0816
427.6	0.0814
427.919	0.0823
428.237	0.0823
428.556	0.0829
428.874	0.0825
429.192	0.0831
429.51	0.0827
429.828	0.0838
430.146	0.0834
430.464	0.0838
430.782	0.0841
431.1	0.0842
431.418	0.0846
431.735	0.0847
432.053	0.0858
432.37	0.0853
432.688	0.085
433.005	0.0856
433.322	0.0856
433.639	0.0856
433.957	0.0866
434.274	0.0865
434.591	0.0871
434.907	0.0871
435.224	0.0869
435.541	0.0876
435.858	0.0885
436.174	0.0879
436.491	0.0887
436.807	0.0876
437.124	0.0882
437.44	0.087
437.756	0.0882
438.072	0.0887
438.388	0.0884
438.704	0.0886
439.02	0.0882
439.336	0.0882
439.652	0.0892
439.968	0.0884
440.283	0.0886
440.599	0.0887
440.914	0.0884
441.23	0.0892
441.545	0.0891
441.86	0.0891
442.175	0.0898
442.491	0.0896
442.806	0.0889
443.121	0.0907
443.435	0.0898
443.75	0.0898
444.065	0.0901
444.38	0.0897
444.694	0.0894
445.009	0.0892
445.323	0.09
445.638	0.089
445.952	0.0887
446.266	0.0895
446.58	0.089
446.894	0.089
447.208	0.089
447.522	0.0884
447.836	0.0884
448.15	0.0886
448.464	0.089
448.777	0.0884
449.091	0.0886
449.404	0.0888
449.718	0.0884
450.031	0.089
450.345	0.0872
450.658	0.0886
450.971	0.0883
451.284	0.0883
451.597	0.0881
451.91	0.0875
452.223	0.0873
452.535	0.0871
452.848	0.0875
453.161	0.0874
453.473	0.0871
453.786	0.0884
454.098	0.0871
454.411	0.0871
454.723	0.0866
455.035	0.0861
455.347	0.0861
455.659	0.086
455.971	0.0853
456.283	0.085
456.595	0.0851
456.907	0.0854
457.218	0.0853
457.53	0.0842
457.841	0.0835
458.153	0.084
458.464	0.0829
458.776	0.0841
459.087	0.083
459.398	0.082
459.709	0.0828
460.02	0.0824
460.331	0.082
460.642	0.0806
460.953	0.0819
461.263	0.0814
461.574	0.0809
461.885	0.0813
462.195	0.0802
462.506	0.0813
462.816	0.0802
463.126	0.0793
463.437	0.0784
463.747	0.0791
464.057	0.0786
464.367	0.0789
464.677	0.0778
464.987	0.0771
465.296	0.077
465.606	0.0767
465.916	0.0756
466.225	0.0767
466.535	0.0748
466.844	0.0745
467.154	0.0745
467.463	0.0745
467.772	0.0742
468.081	0.0744
468.39	0.0727
468.699	0.0724
469.008	0.0727
469.317	0.0722
469.626	0.0716
469.935	0.072
470.243	0.0718
470.552	0.0705
470.86	0.0694
471.169	0.0695
471.477	0.0696
471.785	0.0683
472.093	0.069
472.402	0.0682
472.71	0.0675
473.018	0.0682
473.326	0.0666
473.633	0.067
473.941	0.0654
474.249	0.0654
474.556	0.0652
474.864	0.0643
475.171	0.064
475.479	0.0646
475.786	0.0638
476.094	0.0633
476.401	0.0636
476.708	0.0624
477.015	0.0626
477.322	0.0622
477.629	0.0613
477.936	0.0617
478.242	0.0608
478.549	0.0593
478.856	0.0594
479.162	0.0594
479.469	0.059
479.775	0.0576
480.081	0.0577
480.388	0.0568
480.694	0.0568
481	0.0563
481.306	0.0552
481.612	0.0549
481.918	0.0553
482.224	0.0543
482.53	0.0534
482.835	0.0536
483.141	0.0523
483.446	0.0535
483.752	0.0529
484.057	0.0514
484.363	0.0507
484.668	0.0516
484.973	0.05
485.278	0.0506
485.583	0.0488
485.888	0.049
486.193	0.0493
486.498	0.0487
486.803	0.0474
487.107	0.047
487.412	0.0468
487.717	0.0465
488.021	0.0465
488.325	0.0462
488.63	0.0458
488.934	0.0453
489.238	0.0447
489.542	0.0441
489.846	0.0441
490.15	0.0424
490.454	0.0416
490.758	0.0423
491.062	0.0419
491.366	0.0423
491.669	0.0406
491.973	0.0415
492.276	0.0405
492.58	0.0399
492.883	0.0391
493.186	0.0388
493.489	0.0394
493.792	0.0387
494.096	0.0384
494.399	0.0382
494.701	0.0375
495.004	0.0375
495.307	0.0368
495.61	0.0376
495.912	0.0359
496.215	0.0357
496.517	0.0351
496.82	0.035
497.122	0.0346
497.424	0.0346
497.727	0.0341
498.029	0.034
498.331	0.0324
498.633	0.0344
498.935	0.0331
499.237	0.0325
499.538	0.0322
499.84	0.0325
500.142	0.0314
500.443	0.0312
500.745	0.0307
501.046	0.03
501.348	0.0297
501.649	0.0301
501.95	0.0302
502.251	0.0283
502.552	0.0281
502.853	0.0281
503.154	0.028
503.455	0.0282
503.756	0.0276
504.057	0.0274
504.357	0.0264
504.658	0.0273
504.958	0.0259
505.259	0.026
505.559	0.0255
505.859	0.0251
506.16	0.0252
506.46	0.0239
506.76	0.0233
507.06	0.0232
507.36	0.0244
507.66	0.0233
507.96	0.0228
508.259	0.0226
508.559	0.0228
508.859	0.0221
509.158	0.0221
509.457	0.0222
509.757	0.0212
510.056	0.0202
510.355	0.0208
510.655	0.0208
510.954	0.0202
511.253	0.02
511.552	0.019
511.851	0.0185
512.149	0.0186
512.448	0.0186
512.747	0.0177
513.045	0.0177
513.344	0.0179
513.642	0.0185
513.941	0.0177
514.239	0.0178
514.537	0.0181
514.836	0.0175
515.134	0.0161
515.432	0.0166
515.73	0.0165
516.028	0.0153
516.326	0.0155
516.623	0.0159
516.921	0.0161
517.219	0.0176
517.516	0.0156
517.814	0.0156
518.111	0.0151
518.409	0.0142
518.706	0.0147
519.003	0.0139
519.3	0.0146
519.597	0.0135
519.894	0.013
520.191	0.0128
520.488	0.0117
520.785	0.0117
521.082	0.0123
521.378	0.0124
521.675	0.0124
521.971	0.011
522.268	0.0122
522.564	0.0115
522.861	0.0123
523.157	0.0117
523.453	0.0107
523.749	0.0104
524.045	0.0101
524.341	0.0115
524.637	0.0106
524.933	0.0096
525.229	0.0104
525.524	0.0095
525.82	0.0094
526.115	0.009
526.411	0.009
526.706	0.0081
527.002	0.0083
527.297	0.0085
527.592	0.0084
527.887	0.0082
528.182	0.0082
528.477	0.0085
528.772	0.0081
529.067	0.008
529.362	0.0073
529.657	0.0083
529.951	0.0082
530.246	0.0078
530.54	0.0075
530.835	0.0079
531.129	0.0081
531.423	0.007
531.718	0.0069
532.012	0.0072
532.306	0.0078
532.6	0.0067
532.894	0.0073
533.188	0.0057
533.482	0.0078
533.775	0.0081
534.069	0.0057
534.363	0.0055
534.656	0.0066
534.95	0.0062
535.243	0.0057
535.536	0.0059
535.83	0.0052
536.123	0.0054
536.416	0.0067
536.709	0.0052
537.002	0.0052
537.295	0.0045
537.588	0.0045
537.881	0.0051
538.173	0.0059
538.466	0.0049
538.759	0.0036
539.051	0.0041
539.344	0.0042
539.636	0.0043
539.928	0.005
540.22	0.0035
540.513	0.0043
540.805	0.0028
541.097	0.0029
541.389	0.0027
541.681	0.0042
541.972	0.0033
542.264	0.0038
542.556	0.0042
542.847	0.0023
543.139	0.0025
543.431	0.004
543.722	0.0028
544.013	0.0021
544.305	0.0043
544.596	0.0022
544.887	0.0028
545.178	0.0028
545.469	0.002
545.76	0.0026
546.051	0.0015
546.342	0.0014
546.632	0.0034
546.923	0.0034
547.214	0.0028
547.504	0.0023
547.795	0.0028
548.085	0.0036
548.375	0.0035
548.666	0.002
548.956	0.0028
549.246	0.0026
549.536	0.0018
549.826	0.0017
550.116	0.002
550.406	0.0026
550.695	0.0029
550.985	0.001
551.275	0.0013
551.564	0.0017
551.854	0.002
552.143	0.0023
552.433	0.0019
552.722	0.0021
553.011	0.0011
553.3	0.0022
553.589	0.0029
553.879	0.0008
554.167	0.0009
554.456	0.0014
554.745	0.0018
555.034	0.0011
555.323	0.0011
555.611	0.0018
555.9	0.0015
556.188	0.0013
556.477	0.0017
556.765	0.0017
557.053	0.0015
557.342	0.0013
557.63	0.0009
557.918	0.0014
558.206	0.0019
558.494	0.0029
558.782	0.0011
559.069	0.0019
559.357	0.0018
559.645	0.0023
559.932	0.0002
560.22	0.0016
560.507	0.0009
560.795	0.0014
561.082	0.0003
561.37	0.0008
561.657	0.0024
561.944	0.0003
562.231	0.0004
562.518	0.0007
562.805	0.0002
563.092	0.0007
563.379	0.0005
563.665	0.0004
563.952	-0.0003
564.239	0.0018
564.525	0.0013
564.811	0.0014
565.098	0.0006
565.384	0.0014
565.67	0.0004
565.957	0.0011
566.243	0.0005
566.529	0.002
566.815	0.0003
567.101	0.0005
567.387	-0.0003
567.672	0.0003
567.958	0.0012
568.244	0.0005
568.529	0.0004
568.815	0.0011
569.1	0.0003
569.386	0.0009
569.671	0.002
569.956	0.0007
570.242	0.0016
570.527	0.0009
570.812	0.0007
571.097	0.0004
571.382	0.0016
571.666	0.0015
571.951	0.0009
572.236	0.0012
572.521	0.0008
572.805	0.0005
573.09	-0
573.374	-0
573.659	0.0019
573.943	0.001
574.227	0.001
574.511	0.0013
574.795	0.0015
575.079	0.0014
575.363	0.0013
575.647	0.0009
575.931	0.0001
576.215	-0.0004
576.499	0.0005
576.782	0.0018
577.066	0.0007
577.349	0.0008
577.633	0.0007
577.916	0.0016
578.2	0.0017
578.483	0.0016
578.766	0.0006
579.049	0.0019
579.332	0.0016
579.615	0.0017
579.898	0.0017
580.181	0.0012
580.464	0.0006
580.746	0.0003
581.029	0.0011
581.312	0.0007
581.594	0.0011
581.877	0.0022
582.159	0.0001
582.441	0.0013
582.724	0.0011
583.006	0.0011
583.288	0.0016
583.57	0.0019
583.852	0.0001
584.134	0.0004
584.416	0.0005
584.697	0.0013
584.979	0.0011
585.261	0.0011
585.542	0.0013
585.824	0.0005
586.105	0.0008
586.387	0.0007
586.668	0.0003
586.949	0.0008
587.231	0.0014
587.512	0.0011
587.793	0.0015
588.074	0.0008
588.355	0.0005
588.636	0.0005
588.916	0.0008
589.197	0.001
589.478	0
589.758	0.0013
590.039	0.0004
590.319	0.0009
590.6	0.0002
590.88	0.0005
591.16	0
591.441	0.0003
591.721	0.0006
592.001	0.0005
592.281	-0.0001
592.561	-0.0001
592.841	0.0005
593.12	0.0018
593.4	0.0005
593.68	0.0009
593.959	0.0014
594.239	0.0014
594.518	0.0013
594.798	0.0007
595.077	0.0015
595.356	0.0009
595.636	-0
595.915	0.0016
596.194	-0
596.473	0.0002
596.752	0.001
597.031	0.0002
597.31	0.0003
