Data from 03 0.5 mM K2Cr2O7 0.2 mM BQDS 1 M H2SO4 5 min_Absorbance_0074.txt Node
Date: Thu Dec 09 21:56:44 EST 2021
User: kwabilab-user
Spectrometer: HDX00518
Trigger mode: 0
Integration Time (sec): 5.000000E-2
Scans to average: 50
Nonlinearity correction enabled: false
Boxcar width: 0
Storing dark spectrum: false
XAxis mode: Wavelengths
Number of Pixels in Spectrum: 2068
>>>>>Begin Spectral Data<<<<<
195.27	0.3421
195.642	0.2673
196.014	0.1833
196.386	0.3034
196.758	0.0344
197.129	0.0061
197.501	0.066
197.872	0.0848
198.244	0.1279
198.615	0.1208
198.986	0.1149
199.357	0.1012
199.728	0.1208
200.099	0.1095
200.47	0.1185
200.841	0.0963
201.212	0.1323
201.582	0.1254
201.953	0.1124
202.323	0.1231
202.694	0.1141
203.064	0.1161
203.434	0.128
203.804	0.129
204.174	0.126
204.544	0.1148
204.914	0.1296
205.284	0.1396
205.653	0.1384
206.023	0.1543
206.393	0.1434
206.762	0.119
207.131	0.1325
207.501	0.1322
207.87	0.1417
208.239	0.1233
208.608	0.1616
208.977	0.1272
209.346	0.1583
209.715	0.1498
210.083	0.1456
210.452	0.1421
210.82	0.1442
211.189	0.162
211.557	0.1537
211.925	0.1496
212.294	0.1702
212.662	0.1571
213.03	0.1769
213.398	0.1694
213.766	0.1653
214.133	0.1674
214.501	0.194
214.869	0.2036
215.236	0.1849
215.604	0.2048
215.971	0.2144
216.338	0.2434
216.705	0.2505
217.072	0.2523
217.439	0.2647
217.806	0.2979
218.173	0.3227
218.54	0.3377
218.907	0.3696
219.273	0.4121
219.64	0.4398
220.006	0.4866
220.373	0.4757
220.739	0.543
221.105	0.5825
221.471	0.6011
221.837	0.6316
222.203	0.6894
222.569	0.7171
222.935	0.7418
223.3	0.7747
223.666	0.8186
224.031	0.856
224.397	0.8823
224.762	0.9086
225.127	0.9442
225.493	0.9841
225.858	0.9799
226.223	1.0035
226.588	1.0187
226.952	1.0551
227.317	1.0676
227.682	1.0583
228.046	1.0617
228.411	1.0851
228.775	1.0853
229.14	1.0932
229.504	1.0793
229.868	1.0984
230.232	1.0975
230.596	1.1032
230.96	1.0997
231.324	1.0832
231.688	1.0694
232.052	1.0818
232.415	1.0635
232.779	1.0667
233.142	1.0622
233.505	1.0561
233.869	1.0488
234.232	1.0405
234.595	1.0277
234.958	1.0211
235.321	1.0168
235.684	1.0005
236.047	0.998
236.409	0.9843
236.772	0.9753
237.134	0.9787
237.497	0.9577
237.859	0.9621
238.222	0.951
238.584	0.9423
238.946	0.9303
239.308	0.933
239.67	0.9184
240.032	0.9113
240.393	0.9089
240.755	0.8964
241.117	0.8956
241.478	0.8881
241.84	0.8855
242.201	0.8726
242.562	0.8687
242.924	0.8678
243.285	0.8597
243.646	0.8578
244.007	0.8489
244.368	0.845
244.728	0.8396
245.089	0.8402
245.45	0.8319
245.81	0.8313
246.171	0.8268
246.531	0.823
246.891	0.8214
247.252	0.8183
247.612	0.8144
247.972	0.8123
248.332	0.8112
248.692	0.808
249.051	0.808
249.411	0.8031
249.771	0.8007
250.13	0.7975
250.49	0.7998
250.849	0.7974
251.208	0.7921
251.568	0.7898
251.927	0.7901
252.286	0.792
252.645	0.7886
253.004	0.7897
253.363	0.7886
253.721	0.7868
254.08	0.7847
254.439	0.782
254.797	0.7825
255.155	0.7799
255.514	0.779
255.872	0.7809
256.23	0.7797
256.588	0.78
256.946	0.7798
257.304	0.7767
257.662	0.7822
258.02	0.7753
258.377	0.7763
258.735	0.7736
259.093	0.7743
259.45	0.7727
259.807	0.7724
260.165	0.7713
260.522	0.7682
260.879	0.7658
261.236	0.7692
261.593	0.7684
261.95	0.7667
262.306	0.7672
262.663	0.7615
263.02	0.762
263.376	0.7606
263.733	0.7603
264.089	0.757
264.445	0.7556
264.802	0.755
265.158	0.754
265.514	0.7515
265.87	0.7474
266.226	0.7443
266.581	0.7471
266.937	0.742
267.293	0.7412
267.648	0.738
268.004	0.7365
268.359	0.7339
268.714	0.7306
269.07	0.7275
269.425	0.7245
269.78	0.7245
270.135	0.7216
270.49	0.718
270.844	0.716
271.199	0.7138
271.554	0.7084
271.908	0.7073
272.263	0.7046
272.617	0.6991
272.972	0.6957
273.326	0.6928
273.68	0.6892
274.034	0.6862
274.388	0.6843
274.742	0.6781
275.096	0.6757
275.45	0.6726
275.803	0.6678
276.157	0.6647
276.51	0.6601
276.864	0.6541
277.217	0.6502
277.571	0.6488
277.924	0.6407
278.277	0.6407
278.63	0.6345
278.983	0.6291
279.336	0.6251
279.688	0.6182
280.041	0.6134
280.394	0.6117
280.746	0.6042
281.099	0.6009
281.451	0.5941
281.803	0.5884
282.156	0.5849
282.508	0.5798
282.86	0.5729
283.212	0.568
283.564	0.5621
283.916	0.5574
284.267	0.5524
284.619	0.5467
284.971	0.5407
285.322	0.536
285.673	0.5288
286.025	0.5236
286.376	0.5196
286.727	0.5142
287.078	0.5063
287.429	0.5001
287.78	0.4957
288.131	0.4893
288.482	0.4837
288.833	0.4764
289.183	0.471
289.534	0.4646
289.884	0.4599
290.235	0.453
290.585	0.4475
290.935	0.4417
291.285	0.4362
291.635	0.4303
291.985	0.4238
292.335	0.4183
292.685	0.412
293.035	0.4051
293.384	0.4007
293.734	0.3939
294.083	0.3886
294.433	0.383
294.782	0.3769
295.131	0.3708
295.48	0.3646
295.829	0.3596
296.179	0.3543
296.527	0.3481
296.876	0.3415
297.225	0.3367
297.574	0.3314
297.922	0.3263
298.271	0.3215
298.619	0.3161
298.968	0.3107
299.316	0.3055
299.664	0.301
300.012	0.296
300.36	0.2916
300.708	0.2868
301.056	0.2827
301.404	0.2779
301.752	0.2735
302.099	0.2703
302.447	0.2657
302.794	0.2623
303.142	0.2575
303.489	0.2539
303.836	0.2501
304.183	0.2475
304.531	0.2437
304.878	0.2402
305.224	0.2373
305.571	0.2348
305.918	0.231
306.265	0.2284
306.611	0.2259
306.958	0.2237
307.304	0.2211
307.651	0.2182
307.997	0.2168
308.343	0.2148
308.689	0.2122
309.035	0.2106
309.381	0.2096
309.727	0.2083
310.073	0.2065
310.419	0.2048
310.764	0.2031
311.11	0.2018
311.455	0.2012
311.801	0.2002
312.146	0.1999
312.491	0.199
312.837	0.1984
313.182	0.1973
313.527	0.1973
313.872	0.1972
314.216	0.1968
314.561	0.1968
314.906	0.1963
315.251	0.1968
315.595	0.1966
315.94	0.197
316.284	0.1976
316.628	0.1982
316.972	0.1982
317.317	0.1988
317.661	0.2004
318.005	0.2004
318.348	0.2011
318.692	0.2018
319.036	0.2026
319.38	0.2042
319.723	0.2047
320.067	0.2058
320.41	0.2077
320.754	0.2079
321.097	0.2097
321.44	0.2109
321.783	0.2128
322.126	0.2146
322.469	0.2158
322.812	0.217
323.155	0.2189
323.498	0.2216
323.84	0.2231
324.183	0.2247
324.525	0.2264
324.868	0.2274
325.21	0.2304
325.552	0.2325
325.894	0.2343
326.236	0.2355
326.578	0.2383
326.92	0.2401
327.262	0.2422
327.604	0.2441
327.946	0.2465
328.287	0.2476
328.629	0.2505
328.97	0.2529
329.312	0.2555
329.653	0.2578
329.994	0.2596
330.335	0.2619
330.676	0.2641
331.017	0.2669
331.358	0.2699
331.699	0.2716
332.04	0.2738
332.38	0.2766
332.721	0.2785
333.061	0.2808
333.402	0.2828
333.742	0.2849
334.083	0.2874
334.423	0.2896
334.763	0.2903
335.103	0.2932
335.443	0.2953
335.783	0.2973
336.123	0.2988
336.462	0.3003
336.802	0.3021
337.141	0.3055
337.481	0.3065
337.82	0.308
338.16	0.3104
338.499	0.3121
338.838	0.3142
339.177	0.3159
339.516	0.3176
339.855	0.3194
340.194	0.3222
340.533	0.3233
340.872	0.3253
341.21	0.3261
341.549	0.3276
341.887	0.329
342.226	0.33
342.564	0.3317
342.902	0.3315
343.24	0.3327
343.578	0.333
343.916	0.3342
344.254	0.334
344.592	0.335
344.93	0.3362
345.268	0.3365
345.605	0.3364
345.943	0.3372
346.28	0.3383
346.618	0.3382
346.955	0.3378
347.292	0.3397
347.629	0.339
347.966	0.34
348.303	0.3405
348.64	0.3402
348.977	0.3411
349.314	0.3404
349.65	0.3411
349.987	0.3404
350.324	0.3402
350.66	0.3406
350.996	0.3396
351.333	0.3394
351.669	0.3391
352.005	0.3385
352.341	0.3371
352.677	0.3358
353.013	0.3351
353.349	0.3343
353.685	0.3325
354.02	0.3304
354.356	0.3291
354.691	0.3281
355.027	0.3269
355.362	0.3259
355.697	0.3244
356.033	0.3231
356.368	0.3217
356.703	0.3204
357.038	0.3193
357.373	0.318
357.707	0.3172
358.042	0.3154
358.377	0.3145
358.711	0.3128
359.046	0.312
359.38	0.3104
359.715	0.3096
360.049	0.3068
360.383	0.305
360.717	0.3035
361.051	0.3008
361.385	0.2997
361.719	0.2973
362.053	0.2944
362.387	0.2922
362.72	0.2906
363.054	0.2876
363.387	0.2851
363.721	0.2822
364.054	0.2802
364.387	0.2783
364.721	0.2757
365.054	0.2727
365.387	0.2702
365.72	0.2674
366.053	0.2656
366.385	0.2635
366.718	0.262
367.051	0.26
367.383	0.2575
367.716	0.2552
368.048	0.2536
368.381	0.2516
368.713	0.2501
369.045	0.2471
369.377	0.2459
369.709	0.2443
370.041	0.2426
370.373	0.2396
370.705	0.2374
371.037	0.2353
371.368	0.2331
371.7	0.2309
372.031	0.2279
372.363	0.2256
372.694	0.2231
373.025	0.2204
373.356	0.2171
373.688	0.2144
374.019	0.2115
374.35	0.2082
374.68	0.2067
375.011	0.2029
375.342	0.2007
375.673	0.1975
376.003	0.196
376.334	0.1927
376.664	0.1904
376.995	0.188
377.325	0.1854
377.655	0.1834
377.985	0.1813
378.315	0.1789
378.645	0.178
378.975	0.1753
379.305	0.1733
379.635	0.1714
379.964	0.1705
380.294	0.1678
380.623	0.1665
380.953	0.1637
381.282	0.1626
381.611	0.1604
381.941	0.1589
382.27	0.1569
382.599	0.1554
382.928	0.1528
383.257	0.1509
383.585	0.1488
383.914	0.1466
384.243	0.1444
384.571	0.1415
384.9	0.14
385.228	0.1371
385.557	0.1347
385.885	0.1326
386.213	0.1302
386.541	0.1284
386.869	0.1258
387.197	0.1236
387.525	0.1211
387.853	0.1199
388.181	0.1173
388.508	0.1156
388.836	0.1133
389.164	0.1117
389.491	0.1097
389.818	0.1086
390.146	0.1064
390.473	0.1048
390.8	0.1031
391.127	0.1013
391.454	0.1004
391.781	0.0994
392.108	0.0978
392.435	0.0962
392.761	0.0951
393.088	0.0933
393.415	0.0924
393.741	0.092
394.067	0.0902
394.394	0.0887
394.72	0.0877
395.046	0.0862
395.372	0.0854
395.698	0.0843
396.024	0.0827
396.35	0.0817
396.676	0.0802
397.001	0.0796
397.327	0.0777
397.653	0.0774
397.978	0.0752
398.303	0.0745
398.629	0.0737
398.954	0.0725
399.279	0.0716
399.604	0.0698
399.929	0.0686
400.254	0.0687
400.579	0.0679
400.904	0.0666
401.229	0.0649
401.553	0.0646
401.878	0.0637
402.202	0.0631
402.527	0.0623
402.851	0.061
403.175	0.0609
403.5	0.0603
403.824	0.0593
404.148	0.0589
404.472	0.0595
404.796	0.0583
405.119	0.0575
405.443	0.0576
405.767	0.0574
406.09	0.0577
406.414	0.0566
406.737	0.0561
407.061	0.0565
407.384	0.0562
407.707	0.0555
408.03	0.0544
408.353	0.0546
408.676	0.0542
408.999	0.0543
409.322	0.0542
409.645	0.0545
409.968	0.054
410.29	0.0537
410.613	0.0535
410.935	0.0533
411.258	0.0536
411.58	0.0532
411.902	0.0527
412.224	0.0535
412.546	0.0533
412.868	0.0536
413.19	0.053
413.512	0.0526
413.834	0.0528
414.156	0.0526
414.477	0.0529
414.799	0.0525
415.121	0.0531
415.442	0.0524
415.763	0.0531
416.085	0.0537
416.406	0.0532
416.727	0.052
417.048	0.0532
417.369	0.0526
417.69	0.0533
418.011	0.0534
418.331	0.0536
418.652	0.0541
418.973	0.0538
419.293	0.0539
419.614	0.0542
419.934	0.0545
420.254	0.054
420.574	0.0541
420.895	0.0534
421.215	0.0537
421.535	0.0533
421.855	0.0541
422.174	0.054
422.494	0.054
422.814	0.0543
423.134	0.0543
423.453	0.0553
423.773	0.0555
424.092	0.0554
424.411	0.0545
424.731	0.0557
425.05	0.0549
425.369	0.0548
425.688	0.0554
426.007	0.0557
426.326	0.0559
426.644	0.0559
426.963	0.0565
427.282	0.056
427.6	0.0555
427.919	0.056
428.237	0.0567
428.556	0.0567
428.874	0.057
429.192	0.0567
429.51	0.0559
429.828	0.0565
430.146	0.0568
430.464	0.0569
430.782	0.0573
431.1	0.0571
431.418	0.0567
431.735	0.0573
432.053	0.0575
432.37	0.0572
432.688	0.0573
433.005	0.0574
433.322	0.0577
433.639	0.0572
433.957	0.0582
434.274	0.058
434.591	0.0586
434.907	0.058
435.224	0.0582
435.541	0.0587
435.858	0.0592
436.174	0.0582
436.491	0.059
436.807	0.0579
437.124	0.0583
437.44	0.0578
437.756	0.0582
438.072	0.0577
438.388	0.0585
438.704	0.0586
439.02	0.0581
439.336	0.0581
439.652	0.0586
439.968	0.0581
440.283	0.0586
440.599	0.0584
440.914	0.0582
441.23	0.0581
441.545	0.0582
441.86	0.0581
442.175	0.0581
442.491	0.0581
442.806	0.0578
443.121	0.0589
443.435	0.0583
443.75	0.0578
444.065	0.0578
444.38	0.0578
444.694	0.0578
445.009	0.0579
445.323	0.0583
445.638	0.0579
445.952	0.0571
446.266	0.0578
446.58	0.0581
446.894	0.0572
447.208	0.0576
447.522	0.0573
447.836	0.0572
448.15	0.0568
448.464	0.0569
448.777	0.0567
449.091	0.0565
449.404	0.0561
449.718	0.0574
450.031	0.0561
450.345	0.0566
450.658	0.0567
450.971	0.0562
451.284	0.0563
451.597	0.0565
451.91	0.0555
452.223	0.055
452.535	0.0551
452.848	0.0558
453.161	0.0556
453.473	0.0555
453.786	0.0559
454.098	0.0551
454.411	0.0565
454.723	0.0554
455.035	0.0553
455.347	0.0545
455.659	0.0541
455.971	0.0534
456.283	0.0542
456.595	0.0538
456.907	0.0542
457.218	0.054
457.53	0.0535
457.841	0.0533
458.153	0.0535
458.464	0.0528
458.776	0.0538
459.087	0.0519
459.398	0.0519
459.709	0.0517
460.02	0.0512
460.331	0.0513
460.642	0.0507
460.953	0.0515
461.263	0.0514
461.574	0.0499
461.885	0.0503
462.195	0.0502
462.506	0.0503
462.816	0.0496
463.126	0.0496
463.437	0.0502
463.747	0.0497
464.057	0.0495
464.367	0.0495
464.677	0.0489
464.987	0.0484
465.296	0.0486
465.606	0.0474
465.916	0.0473
466.225	0.0477
466.535	0.0461
466.844	0.0464
467.154	0.0459
467.463	0.0458
467.772	0.0448
468.081	0.046
468.39	0.0453
468.699	0.0446
469.008	0.045
469.317	0.0444
469.626	0.0455
469.935	0.0444
470.243	0.044
470.552	0.0437
470.86	0.0428
471.169	0.0423
471.477	0.0432
471.785	0.0432
472.093	0.0432
472.402	0.042
472.71	0.0421
473.018	0.0422
473.326	0.0412
473.633	0.0415
473.941	0.0413
474.249	0.041
474.556	0.0396
474.864	0.0398
475.171	0.0395
475.479	0.0392
475.786	0.0382
476.094	0.0388
476.401	0.0388
476.708	0.0379
477.015	0.038
477.322	0.0372
477.629	0.0382
477.936	0.0372
478.242	0.0377
478.549	0.0366
478.856	0.0365
479.162	0.0365
479.469	0.0364
479.775	0.0359
480.081	0.036
480.388	0.0348
480.694	0.0352
481	0.0343
481.306	0.0351
481.612	0.0337
481.918	0.0339
482.224	0.0345
482.53	0.0332
482.835	0.0324
483.141	0.0327
483.446	0.0328
483.752	0.0328
484.057	0.0318
484.363	0.0316
484.668	0.0311
484.973	0.03
485.278	0.0316
485.583	0.0304
485.888	0.0294
486.193	0.0293
486.498	0.0297
486.803	0.0295
487.107	0.0294
487.412	0.0277
487.717	0.027
488.021	0.0273
488.325	0.0264
488.63	0.0275
488.934	0.0269
489.238	0.0267
489.542	0.0268
489.846	0.0264
490.15	0.0252
490.454	0.0253
490.758	0.026
491.062	0.0252
491.366	0.0256
491.669	0.0243
491.973	0.0254
492.276	0.0248
492.58	0.0251
492.883	0.0237
493.186	0.0242
493.489	0.0231
493.792	0.0225
494.096	0.0221
494.399	0.0228
494.701	0.0222
495.004	0.0232
495.307	0.0225
495.61	0.0233
495.912	0.021
496.215	0.0213
496.517	0.0202
496.82	0.0203
497.122	0.0201
497.424	0.0202
497.727	0.02
498.029	0.0201
498.331	0.0199
498.633	0.0201
498.935	0.0192
499.237	0.019
499.538	0.0192
499.84	0.0198
500.142	0.0187
500.443	0.019
500.745	0.0184
501.046	0.0185
501.348	0.018
501.649	0.0175
501.95	0.0177
502.251	0.0169
502.552	0.0171
502.853	0.017
503.154	0.0172
503.455	0.0173
503.756	0.0171
504.057	0.0165
504.357	0.0167
504.658	0.0163
504.958	0.0147
505.259	0.0152
505.559	0.015
505.859	0.0146
506.16	0.0156
506.46	0.0143
506.76	0.0143
507.06	0.0141
507.36	0.0145
507.66	0.0141
507.96	0.0135
508.259	0.0133
508.559	0.0143
508.859	0.0132
509.158	0.0134
509.457	0.0135
509.757	0.0119
510.056	0.011
510.355	0.0123
510.655	0.0125
510.954	0.0112
511.253	0.012
511.552	0.0109
511.851	0.0117
512.149	0.011
512.448	0.011
512.747	0.0102
513.045	0.0103
513.344	0.0112
513.642	0.011
513.941	0.0113
514.239	0.0109
514.537	0.0112
514.836	0.0108
515.134	0.0093
515.432	0.0107
515.73	0.0096
516.028	0.0093
516.326	0.0102
516.623	0.0096
516.921	0.0097
517.219	0.0112
517.516	0.0096
517.814	0.0103
518.111	0.0088
518.409	0.0085
518.706	0.0085
519.003	0.0074
519.3	0.0079
519.597	0.0083
519.894	0.0069
520.191	0.0073
520.488	0.0074
520.785	0.0061
521.082	0.0073
521.378	0.0075
521.675	0.0077
521.971	0.0067
522.268	0.0076
522.564	0.0066
522.861	0.0075
523.157	0.0074
523.453	0.0074
523.749	0.0064
524.045	0.005
524.341	0.0061
524.637	0.0057
524.933	0.0055
525.229	0.0056
525.524	0.0059
525.82	0.0055
526.115	0.0057
526.411	0.0061
526.706	0.004
527.002	0.0042
527.297	0.0047
527.592	0.0058
527.887	0.0038
528.182	0.0038
528.477	0.0043
528.772	0.0042
529.067	0.0048
529.362	0.0033
529.657	0.0042
529.951	0.0041
530.246	0.0051
530.54	0.0047
530.835	0.0041
531.129	0.0051
531.423	0.0043
531.718	0.0046
532.012	0.0038
532.306	0.0042
532.6	0.004
532.894	0.0048
533.188	0.004
533.482	0.0039
533.775	0.0042
534.069	0.0025
534.363	0.0024
534.656	0.0033
534.95	0.0031
535.243	0.0032
535.536	0.003
535.83	0.0029
536.123	0.0031
536.416	0.0034
536.709	0.0019
537.002	0.0023
537.295	0.002
537.588	0.0017
537.881	0.0034
538.173	0.0038
538.466	0.0027
538.759	0.0022
539.051	0.0026
539.344	0.0028
539.636	0.0021
539.928	0.0028
540.22	0.0022
540.513	0.0024
540.805	0.0022
541.097	0.0019
541.389	0.0019
541.681	0.0026
541.972	0.0027
542.264	0.0022
542.556	0.0028
542.847	0.0018
543.139	0.0018
543.431	0.0014
543.722	0.0021
544.013	0.0012
544.305	0.0019
544.596	0.0014
544.887	0.002
545.178	0.0019
545.469	0.0011
545.76	0.0018
546.051	0.0015
546.342	0.0005
546.632	0.002
546.923	0.0017
547.214	0.0019
547.504	0.0022
547.795	0.0019
548.085	0.0026
548.375	0.0022
548.666	0.0012
548.956	0.0038
549.246	0.0023
549.536	0.0024
549.826	0.002
550.116	0.0018
550.406	0.0021
550.695	0.0029
550.985	0.002
551.275	0.0008
551.564	0.0013
551.854	0.0028
552.143	0.0018
552.433	0.0019
552.722	0.0007
553.011	0.0018
553.3	0.0015
553.589	0.0021
553.879	0.0007
554.167	0.0011
554.456	0.0005
554.745	0.0021
555.034	0.0014
555.323	0.0012
555.611	0.0008
555.9	0.0018
556.188	0.0011
556.477	0.0029
556.765	0.0018
557.053	0.002
557.342	0.001
557.63	0.0008
557.918	0.0014
558.206	0.0016
558.494	0.002
558.782	0.0017
559.069	0.0017
559.357	0.0019
559.645	0.0023
559.932	0.0012
560.22	0.0026
560.507	0.0014
560.795	0.0019
561.082	0.0002
561.37	0.0004
561.657	0.0012
561.944	0.0011
562.231	0.0011
562.518	0.0009
562.805	0.0003
563.092	0.0007
563.379	0.0009
563.665	0.001
563.952	0.0012
564.239	0.0027
564.525	0.0026
564.811	0.002
565.098	0.002
565.384	0.0028
565.67	0.0018
565.957	0.0029
566.243	0.0017
566.529	0.0022
566.815	0.0011
567.101	0
567.387	0.0008
567.672	-0.0002
567.958	0.0016
568.244	0.0011
568.529	0.0015
568.815	0.0018
569.1	0.001
569.386	0.0017
569.671	0.0032
569.956	0.002
570.242	0.0017
570.527	0.0022
570.812	0.0022
571.097	0.0014
571.382	0.0026
571.666	0.0023
571.951	0.0027
572.236	0.0027
572.521	0.0028
572.805	0.0021
573.09	0.0011
573.374	0.0019
573.659	0.0017
573.943	0.0024
574.227	0.0021
574.511	0.0015
574.795	0.0019
575.079	0.0029
575.363	0.0009
575.647	0.0016
575.931	0.0013
576.215	0.0007
576.499	0.0011
576.782	0.0013
577.066	0.0002
577.349	0.0011
577.633	0.0015
577.916	0.0015
578.2	0.0017
578.483	0.0023
578.766	0.0013
579.049	0.002
579.332	0.0019
579.615	0.0018
579.898	0.0016
580.181	0.002
580.464	0.0015
580.746	0.0015
581.029	0.0032
581.312	0.0018
581.594	0.0016
581.877	0.0026
582.159	0.002
582.441	0.0024
582.724	0.0017
583.006	0.0019
583.288	0.0009
583.57	0.0023
583.852	0.0008
584.134	0.0005
584.416	0.0008
584.697	0.0013
584.979	0.0016
585.261	0.0012
585.542	0.0021
585.824	0.0015
586.105	0.001
586.387	0.0013
586.668	0.0012
586.949	0.0007
587.231	0.0013
587.512	0.0011
587.793	0.0016
588.074	0.0015
588.355	0.0016
588.636	0.0013
588.916	0.0007
589.197	0.0018
589.478	0.0017
589.758	0.0014
590.039	0.0012
590.319	0.0014
590.6	0.0006
590.88	0.0009
591.16	0.0009
591.441	0.0002
591.721	0.0009
592.001	0.0009
592.281	0.0014
592.561	0.0017
592.841	0.0024
593.12	0.0021
593.4	0.0015
593.68	0.0006
593.959	0.0014
594.239	0.0019
594.518	0.002
594.798	0.0015
595.077	0.002
595.356	0.0011
595.636	0.0005
595.915	0.0007
596.194	0.0008
596.473	0.0006
596.752	0.0014
