Data from 03 0.5 mM K2Cr2O7 0.2 mM BQDS 1 M H2SO4 5 min_Absorbance_0081.txt Node
Date: Thu Dec 09 22:31:44 EST 2021
User: kwabilab-user
Spectrometer: HDX00518
Trigger mode: 0
Integration Time (sec): 5.000000E-2
Scans to average: 50
Nonlinearity correction enabled: false
Boxcar width: 0
Storing dark spectrum: false
XAxis mode: Wavelengths
Number of Pixels in Spectrum: 2068
>>>>>Begin Spectral Data<<<<<
195.27	0.2765
195.642	-0.0293
196.014	0.1127
196.386	0.2436
196.758	0.0038
197.129	0.0203
197.501	0.0644
197.872	0.0872
198.244	0.1215
198.615	0.1044
198.986	0.1264
199.357	0.1002
199.728	0.1205
200.099	0.1229
200.47	0.1238
200.841	0.1145
201.212	0.1142
201.582	0.1049
201.953	0.107
202.323	0.1237
202.694	0.1286
203.064	0.1015
203.434	0.1187
203.804	0.1144
204.174	0.1248
204.544	0.1333
204.914	0.1324
205.284	0.1201
205.653	0.1216
206.023	0.1333
206.393	0.1418
206.762	0.1346
207.131	0.1285
207.501	0.1192
207.87	0.1203
208.239	0.1115
208.608	0.1478
208.977	0.1394
209.346	0.1326
209.715	0.1368
210.083	0.1324
210.452	0.1297
210.82	0.1128
211.189	0.1365
211.557	0.1381
211.925	0.1589
212.294	0.15
212.662	0.1437
213.03	0.1622
213.398	0.1589
213.766	0.1759
214.133	0.1589
214.501	0.1739
214.869	0.1784
215.236	0.1914
215.604	0.1975
215.971	0.2102
216.338	0.231
216.705	0.2301
217.072	0.2665
217.439	0.2724
217.806	0.2989
218.173	0.3362
218.54	0.3329
218.907	0.3582
219.273	0.3908
219.64	0.4287
220.006	0.4806
220.373	0.4859
220.739	0.5277
221.105	0.5617
221.471	0.5774
221.837	0.6342
222.203	0.697
222.569	0.7227
222.935	0.765
223.3	0.7878
223.666	0.8253
224.031	0.8622
224.397	0.8818
224.762	0.9016
225.127	0.9417
225.493	0.9773
225.858	0.9868
226.223	1.0078
226.588	1.0401
226.952	1.0444
227.317	1.0582
227.682	1.0475
228.046	1.06
228.411	1.0849
228.775	1.0859
229.14	1.0859
229.504	1.0874
229.868	1.097
230.232	1.0948
230.596	1.0789
230.96	1.0923
231.324	1.0825
231.688	1.0754
232.052	1.0818
232.415	1.0649
232.779	1.0658
233.142	1.0634
233.505	1.0528
233.869	1.0479
234.232	1.0453
234.595	1.0228
234.958	1.0238
235.321	1.0098
235.684	1.0053
236.047	0.9933
236.409	0.9861
236.772	0.978
237.134	0.9705
237.497	0.9555
237.859	0.9577
238.222	0.9422
238.584	0.9424
238.946	0.9282
239.308	0.9268
239.67	0.92
240.032	0.9083
240.393	0.9046
240.755	0.8953
241.117	0.8903
241.478	0.8812
241.84	0.881
242.201	0.8702
242.562	0.8635
242.924	0.862
243.285	0.8564
243.646	0.8531
244.007	0.8483
244.368	0.8422
244.728	0.8371
245.089	0.8368
245.45	0.8272
245.81	0.8248
246.171	0.8237
246.531	0.8145
246.891	0.8172
247.252	0.8123
247.612	0.8111
247.972	0.8047
248.332	0.8051
248.692	0.804
249.051	0.8021
249.411	0.7979
249.771	0.7949
250.13	0.7929
250.49	0.7951
250.849	0.7892
251.208	0.7923
251.568	0.7866
251.927	0.7884
252.286	0.7853
252.645	0.7824
253.004	0.7821
253.363	0.7823
253.721	0.781
254.08	0.7809
254.439	0.7796
254.797	0.7769
255.155	0.7765
255.514	0.7753
255.872	0.7767
256.23	0.7765
256.588	0.7772
256.946	0.7743
257.304	0.7746
257.662	0.7725
258.02	0.7708
258.377	0.7719
258.735	0.7703
259.093	0.7668
259.45	0.7649
259.807	0.7672
260.165	0.7704
260.522	0.7653
260.879	0.7614
261.236	0.7606
261.593	0.7605
261.95	0.7627
262.306	0.7611
262.663	0.7554
263.02	0.7556
263.376	0.7561
263.733	0.7545
264.089	0.7509
264.445	0.7525
264.802	0.7505
265.158	0.7481
265.514	0.7475
265.87	0.744
266.226	0.7398
266.581	0.7418
266.937	0.7395
267.293	0.7349
267.648	0.7314
268.004	0.7286
268.359	0.7279
268.714	0.7282
269.07	0.7238
269.425	0.721
269.78	0.7189
270.135	0.7171
270.49	0.7142
270.844	0.7113
271.199	0.7102
271.554	0.7061
271.908	0.7042
272.263	0.7009
272.617	0.6973
272.972	0.6938
273.326	0.6896
273.68	0.6879
274.034	0.6827
274.388	0.6785
274.742	0.6757
275.096	0.6729
275.45	0.6684
275.803	0.6651
276.157	0.6618
276.51	0.658
276.864	0.6519
277.217	0.6458
277.571	0.6454
277.924	0.6386
278.277	0.6353
278.63	0.6292
278.983	0.6242
279.336	0.6228
279.688	0.6157
280.041	0.6124
280.394	0.6073
280.746	0.6015
281.099	0.5968
281.451	0.5911
281.803	0.5849
282.156	0.5817
282.508	0.5767
282.86	0.5708
283.212	0.5653
283.564	0.5602
283.916	0.5553
284.267	0.5505
284.619	0.5437
284.971	0.5379
285.322	0.5328
285.673	0.5281
286.025	0.5217
286.376	0.5175
286.727	0.511
287.078	0.5045
287.429	0.4989
287.78	0.4932
288.131	0.488
288.482	0.4808
288.833	0.4753
289.183	0.4698
289.534	0.464
289.884	0.4577
290.235	0.4505
290.585	0.4452
290.935	0.4393
291.285	0.4332
291.635	0.4275
291.985	0.4217
292.335	0.4161
292.685	0.4092
293.035	0.4035
293.384	0.398
293.734	0.3921
294.083	0.3869
294.433	0.3814
294.782	0.3752
295.131	0.3695
295.48	0.3638
295.829	0.358
296.179	0.352
296.527	0.3465
296.876	0.341
297.225	0.3346
297.574	0.3296
297.922	0.3249
298.271	0.3193
298.619	0.3136
298.968	0.3094
299.316	0.304
299.664	0.2988
300.012	0.2941
300.36	0.2897
300.708	0.2855
301.056	0.2809
301.404	0.2766
301.752	0.2722
302.099	0.2684
302.447	0.264
302.794	0.2608
303.142	0.2552
303.489	0.2526
303.836	0.2486
304.183	0.2455
304.531	0.2429
304.878	0.2383
305.224	0.2353
305.571	0.2331
305.918	0.23
306.265	0.2266
306.611	0.2242
306.958	0.2221
307.304	0.2197
307.651	0.217
307.997	0.2155
308.343	0.2133
308.689	0.2115
309.035	0.2086
309.381	0.2078
309.727	0.2061
310.073	0.2048
310.419	0.2035
310.764	0.202
311.11	0.2009
311.455	0.1996
311.801	0.1996
312.146	0.1985
312.491	0.1971
312.837	0.1971
313.182	0.1961
313.527	0.1959
313.872	0.1957
314.216	0.1952
314.561	0.1952
314.906	0.1955
315.251	0.195
315.595	0.1952
315.94	0.1954
316.284	0.196
316.628	0.1963
316.972	0.1972
317.317	0.1968
317.661	0.1988
318.005	0.1982
318.348	0.1997
318.692	0.2003
319.036	0.201
319.38	0.2026
319.723	0.2032
320.067	0.2042
320.41	0.2063
320.754	0.2072
321.097	0.2081
321.44	0.2102
321.783	0.2114
322.126	0.2131
322.469	0.2146
322.812	0.2154
323.155	0.2179
323.498	0.2199
323.84	0.2216
324.183	0.2232
324.525	0.2256
324.868	0.2267
325.21	0.2284
325.552	0.2303
325.894	0.2327
326.236	0.2343
326.578	0.2374
326.92	0.2386
327.262	0.2411
327.604	0.2425
327.946	0.2448
328.287	0.2467
328.629	0.2491
328.97	0.2506
329.312	0.2537
329.653	0.2559
329.994	0.2581
330.335	0.2598
330.676	0.2623
331.017	0.2653
331.358	0.2676
331.699	0.2702
332.04	0.2722
332.38	0.2745
332.721	0.2759
333.061	0.279
333.402	0.2808
333.742	0.2838
334.083	0.2858
334.423	0.2874
334.763	0.2895
335.103	0.2908
335.443	0.2937
335.783	0.2955
336.123	0.2975
336.462	0.299
336.802	0.3003
337.141	0.3026
337.481	0.3045
337.82	0.3066
338.16	0.308
338.499	0.3101
338.838	0.3128
339.177	0.3144
339.516	0.316
339.855	0.3178
340.194	0.3196
340.533	0.3212
340.872	0.3231
341.21	0.3246
341.549	0.3259
341.887	0.3265
342.226	0.3279
342.564	0.3292
342.902	0.3297
343.24	0.3311
343.578	0.3316
343.916	0.3323
344.254	0.3326
344.592	0.3328
344.93	0.334
345.268	0.334
345.605	0.3345
345.943	0.3355
346.28	0.3359
346.618	0.3358
346.955	0.3357
347.292	0.3379
347.629	0.3377
347.966	0.3386
348.303	0.3387
348.64	0.3384
348.977	0.3389
349.314	0.3387
349.65	0.3381
349.987	0.3384
350.324	0.3392
350.66	0.3389
350.996	0.3378
351.333	0.3379
351.669	0.3369
352.005	0.3351
352.341	0.3347
352.677	0.334
353.013	0.3322
353.349	0.332
353.685	0.33
354.02	0.3281
354.356	0.3276
354.691	0.3271
355.027	0.3255
355.362	0.3236
355.697	0.3223
356.033	0.3215
356.368	0.3199
356.703	0.3183
357.038	0.318
357.373	0.3168
357.707	0.3152
358.042	0.3143
358.377	0.3119
358.711	0.3112
359.046	0.3098
359.38	0.3085
359.715	0.3071
360.049	0.3055
360.383	0.3035
360.717	0.3015
361.051	0.3
361.385	0.2977
361.719	0.296
362.053	0.2921
362.387	0.2908
362.72	0.2889
363.054	0.2867
363.387	0.284
363.721	0.2812
364.054	0.2792
364.387	0.2761
364.721	0.2741
365.054	0.2713
365.387	0.2684
365.72	0.2657
366.053	0.2645
366.385	0.262
366.718	0.2602
367.051	0.2581
367.383	0.2562
367.716	0.2534
368.048	0.2518
368.381	0.25
368.713	0.2484
369.045	0.2462
369.377	0.2444
369.709	0.242
370.041	0.2402
370.373	0.2378
370.705	0.2361
371.037	0.2342
371.368	0.232
371.7	0.2293
372.031	0.2266
372.363	0.2238
372.694	0.2219
373.025	0.2195
373.356	0.2166
373.688	0.2135
374.019	0.2103
374.35	0.2075
374.68	0.2047
375.011	0.2021
375.342	0.1991
375.673	0.1964
376.003	0.1943
376.334	0.1918
376.664	0.1892
376.995	0.1872
377.325	0.1847
377.655	0.1823
377.985	0.1802
378.315	0.178
378.645	0.1762
378.975	0.1749
379.305	0.172
379.635	0.1707
379.964	0.1692
380.294	0.1669
380.623	0.1654
380.953	0.1621
381.282	0.1613
381.611	0.1591
381.941	0.1577
382.27	0.1558
382.599	0.154
382.928	0.1515
383.257	0.1501
383.585	0.1477
383.914	0.1456
384.243	0.1438
384.571	0.1413
384.9	0.1389
385.228	0.1361
385.557	0.1343
385.885	0.1321
386.213	0.13
386.541	0.1269
386.869	0.1255
387.197	0.1233
387.525	0.1197
387.853	0.1186
388.181	0.1168
388.508	0.1144
388.836	0.1111
389.164	0.1102
389.491	0.1095
389.818	0.108
390.146	0.1059
390.473	0.104
390.8	0.1025
391.127	0.1012
391.454	0.0993
391.781	0.0983
392.108	0.0969
392.435	0.0956
392.761	0.0941
393.088	0.0924
393.415	0.0916
393.741	0.0908
394.067	0.0897
394.394	0.0883
394.72	0.0867
395.046	0.0866
395.372	0.0848
395.698	0.0837
396.024	0.0821
396.35	0.0811
396.676	0.0798
397.001	0.0789
397.327	0.0769
397.653	0.0763
397.978	0.0744
398.303	0.0743
398.629	0.0725
398.954	0.0721
399.279	0.0709
399.604	0.0693
399.929	0.0685
400.254	0.0683
400.579	0.0667
400.904	0.0653
401.229	0.0649
401.553	0.0639
401.878	0.0636
402.202	0.0627
402.527	0.0617
402.851	0.0609
403.175	0.0604
403.5	0.0594
403.824	0.0587
404.148	0.0586
404.472	0.0579
404.796	0.0578
405.119	0.0577
405.443	0.0571
405.767	0.0562
406.09	0.0566
406.414	0.0557
406.737	0.0553
407.061	0.0559
407.384	0.0558
407.707	0.055
408.03	0.0545
408.353	0.0545
408.676	0.0542
408.999	0.0542
409.322	0.0541
409.645	0.0536
409.968	0.0538
410.29	0.0531
410.613	0.0529
410.935	0.0531
411.258	0.0528
411.58	0.0527
411.902	0.0527
412.224	0.0532
412.546	0.0524
412.868	0.0531
413.19	0.0525
413.512	0.0522
413.834	0.0523
414.156	0.0526
414.477	0.0516
414.799	0.052
415.121	0.0533
415.442	0.0523
415.763	0.0528
416.085	0.0534
416.406	0.0526
416.727	0.0519
417.048	0.0525
417.369	0.0523
417.69	0.0532
418.011	0.0528
418.331	0.0533
418.652	0.0532
418.973	0.0529
419.293	0.0533
419.614	0.0541
419.934	0.0543
420.254	0.0536
420.574	0.0534
420.895	0.0534
421.215	0.0531
421.535	0.0534
421.855	0.0532
422.174	0.0538
422.494	0.0534
422.814	0.054
423.134	0.0544
423.453	0.0548
423.773	0.0545
424.092	0.0546
424.411	0.0543
424.731	0.0546
425.05	0.0552
425.369	0.0548
425.688	0.0549
426.007	0.0549
426.326	0.0552
426.644	0.0556
426.963	0.056
427.282	0.0557
427.6	0.0556
427.919	0.0559
428.237	0.0562
428.556	0.0561
428.874	0.0562
429.192	0.0564
429.51	0.056
429.828	0.0565
430.146	0.0567
430.464	0.0567
430.782	0.0564
431.1	0.0566
431.418	0.0571
431.735	0.0568
432.053	0.0568
432.37	0.0566
432.688	0.056
433.005	0.0578
433.322	0.0572
433.639	0.0571
433.957	0.0578
434.274	0.0574
434.591	0.0578
434.907	0.0579
435.224	0.0577
435.541	0.0579
435.858	0.0589
436.174	0.0579
436.491	0.0578
436.807	0.0578
437.124	0.058
437.44	0.0574
437.756	0.0577
438.072	0.0574
438.388	0.058
438.704	0.0584
439.02	0.0574
439.336	0.0577
439.652	0.0581
439.968	0.0575
440.283	0.0578
440.599	0.0579
440.914	0.0582
441.23	0.0572
441.545	0.0572
441.86	0.0575
442.175	0.0571
442.491	0.0575
442.806	0.0579
443.121	0.0584
443.435	0.0577
443.75	0.0576
444.065	0.0574
444.38	0.0572
444.694	0.0577
445.009	0.0575
445.323	0.0581
445.638	0.057
445.952	0.0575
446.266	0.0572
446.58	0.057
446.894	0.0567
447.208	0.0573
447.522	0.0569
447.836	0.0564
448.15	0.0564
448.464	0.0563
448.777	0.0563
449.091	0.0562
449.404	0.0565
449.718	0.0562
450.031	0.0561
450.345	0.0559
450.658	0.0561
450.971	0.0556
451.284	0.0557
451.597	0.0567
451.91	0.0557
452.223	0.0554
452.535	0.0553
452.848	0.056
453.161	0.0553
453.473	0.0552
453.786	0.0558
454.098	0.0551
454.411	0.0556
454.723	0.0551
455.035	0.0548
455.347	0.0542
455.659	0.0537
455.971	0.0533
456.283	0.0537
456.595	0.0536
456.907	0.054
457.218	0.0535
457.53	0.0535
457.841	0.0528
458.153	0.0532
458.464	0.0525
458.776	0.0535
459.087	0.0519
459.398	0.0516
459.709	0.0518
460.02	0.052
460.331	0.0508
460.642	0.0512
460.953	0.0511
461.263	0.0505
461.574	0.0499
461.885	0.0506
462.195	0.0502
462.506	0.0494
462.816	0.0495
463.126	0.0496
463.437	0.0494
463.747	0.0493
464.057	0.0498
464.367	0.049
464.677	0.0492
464.987	0.0487
465.296	0.0477
465.606	0.0472
465.916	0.0469
466.225	0.0469
466.535	0.0459
466.844	0.0464
467.154	0.046
467.463	0.0458
467.772	0.0447
468.081	0.0459
468.39	0.0446
468.699	0.0449
469.008	0.0447
469.317	0.0452
469.626	0.0442
469.935	0.0439
470.243	0.0433
470.552	0.0436
470.86	0.0429
471.169	0.0421
471.477	0.0429
471.785	0.0428
472.093	0.043
472.402	0.0414
472.71	0.0419
473.018	0.042
473.326	0.0414
473.633	0.041
473.941	0.0401
474.249	0.0403
474.556	0.0402
474.864	0.0393
475.171	0.0389
475.479	0.0391
475.786	0.0386
476.094	0.0382
476.401	0.0395
476.708	0.0377
477.015	0.0379
477.322	0.0369
477.629	0.0384
477.936	0.0371
478.242	0.0375
478.549	0.0361
478.856	0.0358
479.162	0.0359
479.469	0.0367
479.775	0.0357
480.081	0.0357
480.388	0.0347
480.694	0.0356
481	0.0345
481.306	0.0346
481.612	0.0346
481.918	0.0343
482.224	0.0338
482.53	0.0326
482.835	0.033
483.141	0.0318
483.446	0.0327
483.752	0.0313
484.057	0.0313
484.363	0.0312
484.668	0.0311
484.973	0.0298
485.278	0.0304
485.583	0.0294
485.888	0.0287
486.193	0.0286
486.498	0.0298
486.803	0.0298
487.107	0.0287
487.412	0.0282
487.717	0.0275
488.021	0.0275
488.325	0.0269
488.63	0.0269
488.934	0.0273
489.238	0.0268
489.542	0.0264
489.846	0.0259
490.15	0.0257
490.454	0.0251
490.758	0.0258
491.062	0.0254
491.366	0.0249
491.669	0.0244
491.973	0.025
492.276	0.0243
492.58	0.0248
492.883	0.0241
493.186	0.023
493.489	0.0226
493.792	0.0224
494.096	0.0225
494.399	0.0232
494.701	0.0227
495.004	0.0222
495.307	0.0229
495.61	0.0228
495.912	0.021
496.215	0.0208
496.517	0.0208
496.82	0.0215
497.122	0.0206
497.424	0.0198
497.727	0.0196
498.029	0.0199
498.331	0.0192
498.633	0.02
498.935	0.0201
499.237	0.019
499.538	0.0185
499.84	0.0196
500.142	0.0183
500.443	0.0183
500.745	0.0181
501.046	0.0176
501.348	0.018
501.649	0.0182
501.95	0.0177
502.251	0.0169
502.552	0.0164
502.853	0.0171
503.154	0.0169
503.455	0.0176
503.756	0.0166
504.057	0.0168
504.357	0.016
504.658	0.0155
504.958	0.0155
505.259	0.0156
505.559	0.0149
505.859	0.0156
506.16	0.0153
506.46	0.014
506.76	0.0136
507.06	0.0141
507.36	0.0146
507.66	0.014
507.96	0.0128
508.259	0.0133
508.559	0.0141
508.859	0.0134
509.158	0.0132
509.457	0.0133
509.757	0.012
510.056	0.0119
510.355	0.0124
510.655	0.0127
510.954	0.0115
511.253	0.0115
511.552	0.0111
511.851	0.0107
512.149	0.0115
512.448	0.0113
512.747	0.0111
513.045	0.0107
513.344	0.0105
513.642	0.0112
513.941	0.0108
514.239	0.0105
514.537	0.0111
514.836	0.0106
515.134	0.0098
515.432	0.0108
515.73	0.0103
516.028	0.0094
516.326	0.0103
516.623	0.0098
516.921	0.0099
517.219	0.0108
517.516	0.0099
517.814	0.01
518.111	0.0083
518.409	0.0072
518.706	0.0087
519.003	0.0074
519.3	0.0086
519.597	0.0078
519.894	0.0083
520.191	0.0068
520.488	0.0072
520.785	0.007
521.082	0.0077
521.378	0.0071
521.675	0.0079
521.971	0.0077
522.268	0.0071
522.564	0.0067
522.861	0.0068
523.157	0.0067
523.453	0.0073
523.749	0.0065
524.045	0.0048
524.341	0.006
524.637	0.0067
524.933	0.0053
525.229	0.0062
525.524	0.005
525.82	0.0055
526.115	0.0053
526.411	0.0059
526.706	0.0049
527.002	0.0046
527.297	0.0048
527.592	0.005
527.887	0.0051
528.182	0.005
528.477	0.0047
528.772	0.0042
529.067	0.004
529.362	0.0043
529.657	0.0043
529.951	0.0053
530.246	0.0042
530.54	0.0039
530.835	0.005
531.129	0.0057
531.423	0.0036
531.718	0.0049
532.012	0.0046
532.306	0.0047
532.6	0.0043
532.894	0.0051
533.188	0.0038
533.482	0.005
533.775	0.0039
534.069	0.0026
534.363	0.0029
534.656	0.0031
534.95	0.0031
535.243	0.0029
535.536	0.0027
535.83	0.0018
536.123	0.0037
536.416	0.0043
536.709	0.0029
537.002	0.002
537.295	0.0021
537.588	0.0021
537.881	0.0028
538.173	0.0033
538.466	0.0031
538.759	0.0029
539.051	0.0025
539.344	0.0038
539.636	0.0033
539.928	0.0033
540.22	0.0032
540.513	0.003
540.805	0.0018
541.097	0.0015
541.389	0.0016
541.681	0.0028
541.972	0.0018
542.264	0.0027
542.556	0.0029
542.847	0.0013
543.139	0.0012
543.431	0.002
543.722	0.0014
544.013	0.0014
544.305	0.0027
544.596	0.0016
544.887	0.0015
545.178	0.0013
545.469	0.0009
545.76	0.0019
546.051	0.0021
546.342	0.0008
546.632	0.002
546.923	0.0024
547.214	0.0012
547.504	0.002
547.795	0.0021
548.085	0.003
548.375	0.0022
548.666	0.0018
548.956	0.0037
549.246	0.0015
549.536	0.0025
549.826	0.0026
550.116	0.0027
550.406	0.0026
550.695	0.0027
550.985	0.0017
551.275	0.0013
551.564	0.0012
551.854	0.0018
552.143	0.0021
552.433	0.0018
552.722	0.0007
553.011	0.0009
553.3	0.0018
553.589	0.0009
553.879	0.0008
554.167	0.0018
554.456	0.0018
554.745	0.0031
555.034	0.0021
555.323	0.0004
555.611	0.0021
555.9	0.0021
556.188	0.0021
556.477	0.0029
556.765	0.0031
557.053	0.0019
557.342	0.0027
557.63	0.0005
557.918	0.0009
558.206	0.0026
558.494	0.003
558.782	0.0022
559.069	0.0024
559.357	0.0024
559.645	0.003
559.932	0.0013
560.22	0.0029
560.507	0.0022
560.795	0.0017
561.082	0.0013
561.37	0.0011
561.657	0.0009
561.944	0.0007
562.231	0.0005
562.518	0.0018
562.805	0.0002
563.092	0.0009
563.379	0.0005
563.665	0.0015
563.952	0.0011
564.239	0.0025
564.525	0.002
564.811	0.0026
565.098	0.0028
565.384	0.0025
565.67	0.0032
565.957	0.0024
566.243	0.0025
566.529	0.0029
566.815	0.0014
567.101	0.0012
567.387	0.0014
567.672	0.0004
567.958	0.0013
568.244	0.0007
568.529	0.0016
568.815	0.0011
569.1	0.0009
569.386	0.0018
569.671	0.003
569.956	0.002
570.242	0.0025
570.527	0.0022
570.812	0.0016
571.097	0.0014
571.382	0.0028
571.666	0.0027
571.951	0.0022
572.236	0.0028
572.521	0.0028
572.805	0.0031
573.09	0.0016
573.374	0.0008
573.659	0.0018
573.943	0.0022
574.227	0.0018
574.511	0.0012
574.795	0.0023
575.079	0.0023
575.363	0.0015
575.647	0.0021
575.931	0.0016
576.215	0.0008
576.499	0.0008
576.782	0.0014
577.066	0.0007
577.349	0.0012
577.633	0.0014
577.916	0.0006
578.2	0.0014
578.483	0.0022
578.766	0.0019
579.049	0.0025
579.332	0.0015
579.615	0.0018
579.898	0.0016
580.181	0.0025
580.464	0.0026
580.746	0.002
581.029	0.0026
581.312	0.0015
581.594	0.0013
581.877	0.0028
582.159	0.0023
582.441	0.002
582.724	0.0028
583.006	0.0027
583.288	0.0019
583.57	0.002
583.852	0.0018
584.134	0.0004
584.416	0.0013
584.697	0.0015
584.979	0.0012
585.261	0.0014
585.542	0.0024
585.824	0.0013
586.105	0.0016
586.387	0.0011
586.668	0.0013
586.949	0.0002
587.231	0.0013
587.512	0.0012
587.793	0.0018
588.074	0.0014
588.355	0.0017
588.636	0.0013
588.916	0.0012
589.197	0.0028
589.478	0.0019
589.758	0.0016
590.039	0.001
590.319	0.0017
590.6	0.0009
590.88	0.0004
591.16	0.0004
591.441	0.0001
591.721	0.001
592.001	0.0011
592.281	0.0013
592.561	0.0024
592.841	0.0009
593.12	0.0018
593.4	0.0011
593.68	0.0012
593.959	0.0015
594.239	0.0021
594.518	0.0025
594.798	0.0011
595.077	0.0016
595.356	0.0013
595.636	0.0007
595.915	0.001
596.194	0.0008
596.473	0.0006
