Data from 03 0.5 mM K2Cr2O7 0.2 mM BQDS 1 M H2SO4 5 min_Absorbance_0038.txt Node
Date: Thu Dec 09 18:56:44 EST 2021
User: kwabilab-user
Spectrometer: HDX00518
Trigger mode: 0
Integration Time (sec): 5.000000E-2
Scans to average: 50
Nonlinearity correction enabled: false
Boxcar width: 0
Storing dark spectrum: false
XAxis mode: Wavelengths
Number of Pixels in Spectrum: 2068
>>>>>Begin Spectral Data<<<<<
195.27	0.0848
195.642	-0.0526
196.014	0.0548
196.386	0.1767
196.758	-0.029
197.129	0.0085
197.501	0.044
197.872	0.0774
198.244	0.1157
198.615	0.1041
198.986	0.1182
199.357	0.0979
199.728	0.0965
200.099	0.1062
200.47	0.1253
200.841	0.1112
201.212	0.1139
201.582	0.099
201.953	0.1063
202.323	0.0992
202.694	0.1147
203.064	0.0947
203.434	0.1235
203.804	0.0977
204.174	0.1061
204.544	0.1089
204.914	0.1124
205.284	0.1224
205.653	0.1117
206.023	0.1238
206.393	0.1143
206.762	0.1197
207.131	0.1341
207.501	0.1147
207.87	0.1085
208.239	0.1101
208.608	0.128
208.977	0.1054
209.346	0.1283
209.715	0.14
210.083	0.1102
210.452	0.1416
210.82	0.117
211.189	0.1262
211.557	0.1345
211.925	0.1218
212.294	0.153
212.662	0.1402
213.03	0.1537
213.398	0.1449
213.766	0.1583
214.133	0.1636
214.501	0.1709
214.869	0.1831
215.236	0.1861
215.604	0.1844
215.971	0.2017
216.338	0.2222
216.705	0.214
217.072	0.2453
217.439	0.2513
217.806	0.2774
218.173	0.2997
218.54	0.3228
218.907	0.348
219.273	0.3883
219.64	0.414
220.006	0.4575
220.373	0.4754
220.739	0.5126
221.105	0.5554
221.471	0.5792
221.837	0.6371
222.203	0.6664
222.569	0.7007
222.935	0.7371
223.3	0.7664
223.666	0.807
224.031	0.8298
224.397	0.8625
224.762	0.887
225.127	0.9352
225.493	0.9596
225.858	0.9671
226.223	1.002
226.588	1.0191
226.952	1.0245
227.317	1.0542
227.682	1.0541
228.046	1.0652
228.411	1.0824
228.775	1.0787
229.14	1.0881
229.504	1.0867
229.868	1.0858
230.232	1.0875
230.596	1.0864
230.96	1.0956
231.324	1.0849
231.688	1.0785
232.052	1.0825
232.415	1.0707
232.779	1.0668
233.142	1.0721
233.505	1.0566
233.869	1.06
234.232	1.0449
234.595	1.0351
234.958	1.0227
235.321	1.0214
235.684	1.0087
236.047	1.0042
236.409	0.9936
236.772	0.9882
237.134	0.9803
237.497	0.974
237.859	0.9712
238.222	0.9639
238.584	0.9516
238.946	0.9461
239.308	0.9325
239.67	0.9318
240.032	0.9234
240.393	0.9198
240.755	0.9107
241.117	0.906
241.478	0.9043
241.84	0.8979
242.201	0.8908
242.562	0.8828
242.924	0.8826
243.285	0.8753
243.646	0.8658
244.007	0.8627
244.368	0.8639
244.728	0.8576
245.089	0.8571
245.45	0.8516
245.81	0.8488
246.171	0.8417
246.531	0.8393
246.891	0.8376
247.252	0.8343
247.612	0.8375
247.972	0.8305
248.332	0.8298
248.692	0.8287
249.051	0.8232
249.411	0.8191
249.771	0.8184
250.13	0.8194
250.49	0.8201
250.849	0.8168
251.208	0.816
251.568	0.8147
251.927	0.8145
252.286	0.811
252.645	0.8112
253.004	0.8081
253.363	0.8123
253.721	0.8104
254.08	0.8116
254.439	0.81
254.797	0.8067
255.155	0.8035
255.514	0.805
255.872	0.8083
256.23	0.8046
256.588	0.8074
256.946	0.8056
257.304	0.8032
257.662	0.8023
258.02	0.7992
258.377	0.8027
258.735	0.8015
259.093	0.799
259.45	0.7986
259.807	0.7994
260.165	0.8003
260.522	0.799
260.879	0.7968
261.236	0.7953
261.593	0.7944
261.95	0.7928
262.306	0.7913
262.663	0.7879
263.02	0.7903
263.376	0.7902
263.733	0.7886
264.089	0.7859
264.445	0.7794
264.802	0.7835
265.158	0.7796
265.514	0.7767
265.87	0.7759
266.226	0.7715
266.581	0.7724
266.937	0.7721
267.293	0.7673
267.648	0.7645
268.004	0.7631
268.359	0.7603
268.714	0.7572
269.07	0.7551
269.425	0.7534
269.78	0.7488
270.135	0.7459
270.49	0.7436
270.844	0.7417
271.199	0.7388
271.554	0.7334
271.908	0.7328
272.263	0.7309
272.617	0.7262
272.972	0.7224
273.326	0.7197
273.68	0.7122
274.034	0.7116
274.388	0.7108
274.742	0.7062
275.096	0.7021
275.45	0.6971
275.803	0.6893
276.157	0.6874
276.51	0.6829
276.864	0.6776
277.217	0.6718
277.571	0.6709
277.924	0.6638
278.277	0.6607
278.63	0.6541
278.983	0.6511
279.336	0.6461
279.688	0.6411
280.041	0.6343
280.394	0.6315
280.746	0.6226
281.099	0.6209
281.451	0.6144
281.803	0.6081
282.156	0.6036
282.508	0.596
282.86	0.5943
283.212	0.5868
283.564	0.582
283.916	0.5755
284.267	0.5708
284.619	0.5643
284.971	0.56
285.322	0.5533
285.673	0.5468
286.025	0.5417
286.376	0.5366
286.727	0.53
287.078	0.5225
287.429	0.5168
287.78	0.5123
288.131	0.5072
288.482	0.5005
288.833	0.4932
289.183	0.4869
289.534	0.4821
289.884	0.4752
290.235	0.4689
290.585	0.4633
290.935	0.4571
291.285	0.4502
291.635	0.4448
291.985	0.4387
292.335	0.4336
292.685	0.4269
293.035	0.4211
293.384	0.4145
293.734	0.4079
294.083	0.4032
294.433	0.3975
294.782	0.3902
295.131	0.385
295.48	0.3795
295.829	0.3745
296.179	0.3682
296.527	0.3618
296.876	0.3562
297.225	0.3502
297.574	0.3454
297.922	0.3403
298.271	0.3339
298.619	0.3294
298.968	0.3242
299.316	0.3188
299.664	0.3146
300.012	0.3093
300.36	0.3045
300.708	0.2996
301.056	0.2951
301.404	0.2898
301.752	0.2862
302.099	0.2822
302.447	0.2788
302.794	0.2742
303.142	0.2699
303.489	0.2668
303.836	0.263
304.183	0.2599
304.531	0.2565
304.878	0.2527
305.224	0.2498
305.571	0.2469
305.918	0.2429
306.265	0.2411
306.611	0.2379
306.958	0.2353
307.304	0.2324
307.651	0.23
307.997	0.2286
308.343	0.2262
308.689	0.2243
309.035	0.2225
309.381	0.2212
309.727	0.2194
310.073	0.2173
310.419	0.2164
310.764	0.2148
311.11	0.2135
311.455	0.2129
311.801	0.2123
312.146	0.2114
312.491	0.2107
312.837	0.2096
313.182	0.2088
313.527	0.2083
313.872	0.2088
314.216	0.2088
314.561	0.2082
314.906	0.2081
315.251	0.208
315.595	0.2075
315.94	0.2085
316.284	0.2088
316.628	0.209
316.972	0.2094
317.317	0.2103
317.661	0.2109
318.005	0.2116
318.348	0.2125
318.692	0.213
319.036	0.2137
319.38	0.2149
319.723	0.2162
320.067	0.2173
320.41	0.2188
320.754	0.2195
321.097	0.2216
321.44	0.2229
321.783	0.2241
322.126	0.2257
322.469	0.2273
322.812	0.2286
323.155	0.2311
323.498	0.2327
323.84	0.2346
324.183	0.236
324.525	0.2385
324.868	0.2393
325.21	0.242
325.552	0.2441
325.894	0.2457
326.236	0.248
326.578	0.2497
326.92	0.2523
327.262	0.2536
327.604	0.2557
327.946	0.2584
328.287	0.26
328.629	0.2623
328.97	0.2655
329.312	0.2671
329.653	0.2693
329.994	0.2714
330.335	0.274
330.676	0.2768
331.017	0.2793
331.358	0.2819
331.699	0.2842
332.04	0.2867
332.38	0.289
332.721	0.2905
333.061	0.2936
333.402	0.2954
333.742	0.2979
334.083	0.3003
334.423	0.3019
334.763	0.3043
335.103	0.3062
335.443	0.308
335.783	0.3102
336.123	0.3117
336.462	0.3141
336.802	0.3155
337.141	0.3181
337.481	0.3198
337.82	0.3214
338.16	0.323
338.499	0.3251
338.838	0.3275
339.177	0.33
339.516	0.3311
339.855	0.3325
340.194	0.3353
340.533	0.3362
340.872	0.3385
341.21	0.3402
341.549	0.3408
341.887	0.3432
342.226	0.3431
342.564	0.3447
342.902	0.3449
343.24	0.3463
343.578	0.3469
343.916	0.3473
344.254	0.3481
344.592	0.3488
344.93	0.3492
345.268	0.3496
345.605	0.3496
345.943	0.3503
346.28	0.3513
346.618	0.3519
346.955	0.3511
347.292	0.3521
347.629	0.3518
347.966	0.353
348.303	0.3531
348.64	0.3529
348.977	0.3534
349.314	0.3541
349.65	0.3539
349.987	0.3541
350.324	0.354
350.66	0.3541
350.996	0.3529
351.333	0.3523
351.669	0.3514
352.005	0.3511
352.341	0.3498
352.677	0.3484
353.013	0.3474
353.349	0.3463
353.685	0.3448
354.02	0.3435
354.356	0.3416
354.691	0.3404
355.027	0.3398
355.362	0.338
355.697	0.3366
356.033	0.3351
356.368	0.3342
356.703	0.3325
357.038	0.3314
357.373	0.3303
357.707	0.3288
358.042	0.3281
358.377	0.3257
358.711	0.3246
359.046	0.3231
359.38	0.3214
359.715	0.3202
360.049	0.3197
360.383	0.3163
360.717	0.3149
361.051	0.3125
361.385	0.3105
361.719	0.3091
362.053	0.3053
362.387	0.3032
362.72	0.3017
363.054	0.2979
363.387	0.2963
363.721	0.2933
364.054	0.2913
364.387	0.2881
364.721	0.2856
365.054	0.2833
365.387	0.2803
365.72	0.2775
366.053	0.2757
366.385	0.2738
366.718	0.2715
367.051	0.2699
367.383	0.267
367.716	0.2644
368.048	0.2636
368.381	0.2607
368.713	0.259
369.045	0.2566
369.377	0.2551
369.709	0.2532
370.041	0.2514
370.373	0.2489
370.705	0.2459
371.037	0.2443
371.368	0.2423
371.7	0.2406
372.031	0.2367
372.363	0.2343
372.694	0.2326
373.025	0.2292
373.356	0.2261
373.688	0.2233
374.019	0.2195
374.35	0.2171
374.68	0.2146
375.011	0.2113
375.342	0.2087
375.673	0.2057
376.003	0.2036
376.334	0.2005
376.664	0.1973
376.995	0.1957
377.325	0.1933
377.655	0.1913
377.985	0.1883
378.315	0.1864
378.645	0.1849
378.975	0.1826
379.305	0.1805
379.635	0.1784
379.964	0.1774
380.294	0.1756
380.623	0.1727
380.953	0.1706
381.282	0.1692
381.611	0.1673
381.941	0.1662
382.27	0.163
382.599	0.1616
382.928	0.1594
383.257	0.157
383.585	0.1556
383.914	0.1528
384.243	0.1509
384.571	0.1482
384.9	0.1464
385.228	0.1433
385.557	0.1407
385.885	0.1385
386.213	0.1366
386.541	0.1338
386.869	0.1314
387.197	0.13
387.525	0.1266
387.853	0.1249
388.181	0.123
388.508	0.1207
388.836	0.1178
389.164	0.1163
389.491	0.1153
389.818	0.114
390.146	0.1115
390.473	0.1092
390.8	0.1083
391.127	0.1064
391.454	0.1051
391.781	0.1039
392.108	0.1018
392.435	0.1005
392.761	0.0998
393.088	0.0978
393.415	0.0965
393.741	0.0957
394.067	0.0941
394.394	0.0932
394.72	0.0917
395.046	0.0911
395.372	0.0898
395.698	0.0882
396.024	0.0865
396.35	0.0853
396.676	0.0839
397.001	0.083
397.327	0.0818
397.653	0.0806
397.978	0.0784
398.303	0.0778
398.629	0.0767
398.954	0.0761
399.279	0.0754
399.604	0.0733
399.929	0.0723
400.254	0.0713
400.579	0.0705
400.904	0.0699
401.229	0.0684
401.553	0.0678
401.878	0.0675
402.202	0.0661
402.527	0.0649
402.851	0.0649
403.175	0.0641
403.5	0.0638
403.824	0.0626
404.148	0.0618
404.472	0.0616
404.796	0.0612
405.119	0.0607
405.443	0.0604
405.767	0.0593
406.09	0.0599
406.414	0.0591
406.737	0.059
407.061	0.0586
407.384	0.0588
407.707	0.0583
408.03	0.0578
408.353	0.058
408.676	0.0573
408.999	0.0575
409.322	0.0568
409.645	0.057
409.968	0.0566
410.29	0.0564
410.613	0.0561
410.935	0.0562
411.258	0.0562
411.58	0.0559
411.902	0.0561
412.224	0.0564
412.546	0.0563
412.868	0.056
413.19	0.0559
413.512	0.0552
413.834	0.0552
414.156	0.0554
414.477	0.0552
414.799	0.055
415.121	0.0558
415.442	0.0548
415.763	0.0554
416.085	0.0558
416.406	0.0553
416.727	0.0552
417.048	0.0559
417.369	0.0555
417.69	0.0557
418.011	0.0557
418.331	0.0562
418.652	0.0561
418.973	0.056
419.293	0.0561
419.614	0.0559
419.934	0.0567
420.254	0.0568
420.574	0.0565
420.895	0.056
421.215	0.0559
421.535	0.056
421.855	0.0564
422.174	0.0563
422.494	0.0563
422.814	0.0565
423.134	0.057
423.453	0.0576
423.773	0.0571
424.092	0.058
424.411	0.0569
424.731	0.0577
425.05	0.058
425.369	0.0575
425.688	0.0575
426.007	0.0587
426.326	0.058
426.644	0.0586
426.963	0.0586
427.282	0.0583
427.6	0.0583
427.919	0.0587
428.237	0.0592
428.556	0.059
428.874	0.0585
429.192	0.0597
429.51	0.059
429.828	0.0596
430.146	0.0591
430.464	0.0593
430.782	0.0598
431.1	0.0593
431.418	0.06
431.735	0.0598
432.053	0.0606
432.37	0.0597
432.688	0.0595
433.005	0.06
433.322	0.0604
433.639	0.0601
433.957	0.0607
434.274	0.0602
434.591	0.0603
434.907	0.0605
435.224	0.0614
435.541	0.0612
435.858	0.0617
436.174	0.0609
436.491	0.0617
436.807	0.0609
437.124	0.0614
437.44	0.0605
437.756	0.0602
438.072	0.0608
438.388	0.0607
438.704	0.0606
439.02	0.0606
439.336	0.0609
439.652	0.0611
439.968	0.0607
440.283	0.0613
440.599	0.061
440.914	0.0606
441.23	0.0605
441.545	0.0602
441.86	0.0601
442.175	0.06
442.491	0.0609
442.806	0.0604
443.121	0.0614
443.435	0.0607
443.75	0.0608
444.065	0.0606
444.38	0.0605
444.694	0.0611
445.009	0.0605
445.323	0.0603
445.638	0.0602
445.952	0.0603
446.266	0.0603
446.58	0.0593
446.894	0.0597
447.208	0.0603
447.522	0.0595
447.836	0.0589
448.15	0.0594
448.464	0.059
448.777	0.0589
449.091	0.0589
449.404	0.0588
449.718	0.0586
450.031	0.0586
450.345	0.0584
450.658	0.0582
450.971	0.0587
451.284	0.058
451.597	0.0588
451.91	0.0581
452.223	0.0581
452.535	0.058
452.848	0.0583
453.161	0.0582
453.473	0.058
453.786	0.0579
454.098	0.0577
454.411	0.0578
454.723	0.0569
455.035	0.0568
455.347	0.0566
455.659	0.0565
455.971	0.0557
456.283	0.0558
456.595	0.0557
456.907	0.0555
457.218	0.0555
457.53	0.0551
457.841	0.0545
458.153	0.0548
458.464	0.0543
458.776	0.0552
459.087	0.0539
459.398	0.0536
459.709	0.0539
460.02	0.0542
460.331	0.0533
460.642	0.0525
460.953	0.0537
461.263	0.0528
461.574	0.0526
461.885	0.0523
462.195	0.0522
462.506	0.0525
462.816	0.052
463.126	0.0516
463.437	0.051
463.747	0.0519
464.057	0.0511
464.367	0.0513
464.677	0.0506
464.987	0.0501
465.296	0.0499
465.606	0.05
465.916	0.0491
466.225	0.0499
466.535	0.0486
466.844	0.0486
467.154	0.0481
467.463	0.0475
467.772	0.0472
468.081	0.0485
468.39	0.0473
468.699	0.0472
469.008	0.0473
469.317	0.0474
469.626	0.0469
469.935	0.0464
470.243	0.0451
470.552	0.0456
470.86	0.0447
471.169	0.0444
471.477	0.0452
471.785	0.0439
472.093	0.0449
472.402	0.0436
472.71	0.0437
473.018	0.044
473.326	0.042
473.633	0.0421
473.941	0.0414
474.249	0.0423
474.556	0.0418
474.864	0.0412
475.171	0.0401
475.479	0.0408
475.786	0.0404
476.094	0.0407
476.401	0.0404
476.708	0.0405
477.015	0.0399
477.322	0.0396
477.629	0.039
477.936	0.0388
478.242	0.0386
478.549	0.0384
478.856	0.0384
479.162	0.0378
479.469	0.0376
479.775	0.0364
480.081	0.0377
480.388	0.0366
480.694	0.0372
481	0.036
481.306	0.0364
481.612	0.0362
481.918	0.0353
482.224	0.0359
482.53	0.0339
482.835	0.0344
483.141	0.0338
483.446	0.0342
483.752	0.0331
484.057	0.0333
484.363	0.0327
484.668	0.0334
484.973	0.0321
485.278	0.0323
485.583	0.0324
485.888	0.0307
486.193	0.0304
486.498	0.0312
486.803	0.0312
487.107	0.03
487.412	0.0287
487.717	0.0295
488.021	0.0288
488.325	0.0286
488.63	0.0293
488.934	0.0284
489.238	0.0278
489.542	0.028
489.846	0.0269
490.15	0.0268
490.454	0.0271
490.758	0.0273
491.062	0.0271
491.366	0.027
491.669	0.0254
491.973	0.0253
492.276	0.0263
492.58	0.0251
492.883	0.0257
493.186	0.0248
493.489	0.0241
493.792	0.0245
494.096	0.024
494.399	0.024
494.701	0.0238
495.004	0.0241
495.307	0.023
495.61	0.0235
495.912	0.0228
496.215	0.0224
496.517	0.0224
496.82	0.0222
497.122	0.0222
497.424	0.0224
497.727	0.0218
498.029	0.0211
498.331	0.02
498.633	0.0212
498.935	0.021
499.237	0.0198
499.538	0.0208
499.84	0.0207
500.142	0.0196
500.443	0.0197
500.745	0.0195
501.046	0.0189
501.348	0.019
501.649	0.0192
501.95	0.0186
502.251	0.0182
502.552	0.0179
502.853	0.0179
503.154	0.0176
503.455	0.0182
503.756	0.0176
504.057	0.0166
504.357	0.0169
504.658	0.0174
504.958	0.0164
505.259	0.0161
505.559	0.0159
505.859	0.0165
506.16	0.0168
506.46	0.0151
506.76	0.0155
507.06	0.0158
507.36	0.0151
507.66	0.0159
507.96	0.0135
508.259	0.0142
508.559	0.0145
508.859	0.0136
509.158	0.0141
509.457	0.0139
509.757	0.0124
510.056	0.0135
510.355	0.0133
510.655	0.0143
510.954	0.012
511.253	0.0124
511.552	0.0113
511.851	0.0121
512.149	0.0116
512.448	0.0117
512.747	0.0118
513.045	0.0115
513.344	0.0118
513.642	0.0121
513.941	0.0116
514.239	0.0118
514.537	0.0108
514.836	0.0112
515.134	0.0098
515.432	0.0113
515.73	0.0106
516.028	0.0101
516.326	0.0106
516.623	0.0099
516.921	0.0099
517.219	0.0115
517.516	0.0104
517.814	0.01
518.111	0.0092
518.409	0.0084
518.706	0.0094
519.003	0.008
519.3	0.0096
519.597	0.0093
519.894	0.0092
520.191	0.0089
520.488	0.0105
520.785	0.0082
521.082	0.0084
521.378	0.0093
521.675	0.009
521.971	0.0082
522.268	0.0089
522.564	0.0072
522.861	0.0078
523.157	0.0081
523.453	0.0085
523.749	0.0061
524.045	0.0058
524.341	0.0074
524.637	0.0068
524.933	0.0078
525.229	0.0069
525.524	0.0068
525.82	0.0055
526.115	0.0063
526.411	0.0069
526.706	0.0051
527.002	0.005
527.297	0.0054
527.592	0.006
527.887	0.0061
528.182	0.0056
528.477	0.0051
528.772	0.0051
529.067	0.0054
529.362	0.0056
529.657	0.0052
529.951	0.0057
530.246	0.0063
530.54	0.0055
530.835	0.0054
531.129	0.0066
531.423	0.0052
531.718	0.005
532.012	0.0045
532.306	0.0045
532.6	0.0051
532.894	0.0053
533.188	0.0037
533.482	0.0052
533.775	0.0053
534.069	0.004
534.363	0.0041
534.656	0.004
534.95	0.0028
535.243	0.0044
535.536	0.0048
535.83	0.0035
536.123	0.0036
536.416	0.0052
536.709	0.0047
537.002	0.0028
537.295	0.0028
537.588	0.0034
537.881	0.005
538.173	0.0048
538.466	0.0029
538.759	0.0027
539.051	0.0033
539.344	0.0036
539.636	0.0041
539.928	0.0031
540.22	0.0038
540.513	0.0027
540.805	0.0031
541.097	0.0034
541.389	0.0026
541.681	0.0044
541.972	0.004
542.264	0.0033
542.556	0.0039
542.847	0.0024
543.139	0.0033
543.431	0.0027
543.722	0.0033
544.013	0.0022
544.305	0.0032
544.596	0.0022
544.887	0.0026
545.178	0.003
545.469	0.0014
545.76	0.0034
546.051	0.0033
546.342	0.0015
546.632	0.0042
546.923	0.0029
547.214	0.0024
547.504	0.0028
547.795	0.0018
548.085	0.0024
548.375	0.0025
548.666	0.0021
548.956	0.0042
549.246	0.0028
549.536	0.0029
549.826	0.0019
550.116	0.0024
550.406	0.0031
550.695	0.0028
550.985	0.003
551.275	0.0032
551.564	0.002
551.854	0.0034
552.143	0.0019
552.433	0.0021
552.722	0.0027
553.011	0.0019
553.3	0.0029
553.589	0.0025
553.879	0.0009
554.167	0.0021
554.456	0.0018
554.745	0.003
555.034	0.002
555.323	0.001
555.611	0.0015
555.9	0.0024
556.188	0.002
556.477	0.002
556.765	0.003
557.053	0.0016
557.342	0.0028
557.63	0.0009
557.918	0.0022
558.206	0.0031
558.494	0.0035
558.782	0.0029
559.069	0.0033
559.357	0.0031
559.645	0.0039
559.932	0.0018
560.22	0.0038
560.507	0.0015
560.795	0.0021
561.082	0.0019
561.37	0.0019
561.657	0.002
561.944	0.0011
562.231	0.0013
562.518	0.0012
562.805	0.0019
563.092	0.0013
563.379	0.0017
563.665	0.0023
563.952	0.0022
564.239	0.0033
564.525	0.0035
564.811	0.0028
565.098	0.0021
565.384	0.0024
565.67	0.0032
565.957	0.0034
566.243	0.0025
566.529	0.0041
566.815	0.003
567.101	0.0024
567.387	0.0025
567.672	0.0014
567.958	0.0032
568.244	0.002
568.529	0.0021
568.815	0.0024
569.1	0.0019
569.386	0.0031
569.671	0.0031
569.956	0.0023
570.242	0.0031
570.527	0.0026
570.812	0.0028
571.097	0.0025
571.382	0.0032
571.666	0.0041
571.951	0.0024
572.236	0.0036
572.521	0.0045
572.805	0.0038
573.09	0.0019
573.374	0.0018
573.659	0.0035
573.943	0.0037
574.227	0.0035
574.511	0.0027
574.795	0.0029
575.079	0.0029
575.363	0.0017
575.647	0.0026
575.931	0.0026
576.215	0.0014
576.499	0.0012
576.782	0.0028
577.066	0.0017
577.349	0.0024
577.633	0.0015
577.916	0.002
578.2	0.0027
578.483	0.0029
578.766	0.0032
579.049	0.0042
579.332	0.0031
579.615	0.0026
579.898	0.0022
580.181	0.0029
580.464	0.0019
580.746	0.0019
581.029	0.0029
581.312	0.0016
581.594	0.0016
581.877	0.0033
582.159	0.0028
582.441	0.0022
582.724	0.0026
583.006	0.003
583.288	0.0019
583.57	0.003
583.852	0.0024
584.134	0.0019
584.416	0.0014
584.697	0.0022
584.979	0.002
585.261	0.0016
585.542	0.0026
585.824	0.0019
586.105	0.0022
586.387	0.0035
586.668	0.0015
586.949	0.0022
587.231	0.002
587.512	0.0021
587.793	0.0023
588.074	0.0023
588.355	0.0018
588.636	0.0019
588.916	0.003
589.197	0.0032
589.478	0.0024
589.758	0.0026
590.039	0.002
590.319	0.0029
590.6	0.0029
590.88	0.0028
591.16	0.0014
591.441	0.0019
591.721	0.0019
592.001	0.0017
592.281	0.0019
592.561	0.0023
592.841	0.0012
593.12	0.0025
593.4	0.0021
593.68	0.0021
593.959	0.0027
594.239	0.0029
594.518	0.0038
594.798	0.0024
595.077	0.0025
595.356	0.0022
595.636	0.0026
595.915	0.0025
596.194	0.003
596.473	0.0018
596.752	0.0028
