Data from 03 0.5 mM K2Cr2O7 0.2 mM BQDS 1 M H2SO4 5 min_Absorbance_0044.txt Node
Date: Thu Dec 09 19:26:44 EST 2021
User: kwabilab-user
Spectrometer: HDX00518
Trigger mode: 0
Integration Time (sec): 5.000000E-2
Scans to average: 50
Nonlinearity correction enabled: false
Boxcar width: 0
Storing dark spectrum: false
XAxis mode: Wavelengths
Number of Pixels in Spectrum: 2068
>>>>>Begin Spectral Data<<<<<
195.27	0.1221
195.642	0.0691
196.014	0.0756
196.386	0.3783
196.758	-0.0102
197.129	0.0231
197.501	0.0416
197.872	0.1087
198.244	0.1303
198.615	0.1289
198.986	0.1145
199.357	0.1176
199.728	0.1117
200.099	0.125
200.47	0.1279
200.841	0.1259
201.212	0.1223
201.582	0.1208
201.953	0.1053
202.323	0.1258
202.694	0.1355
203.064	0.1052
203.434	0.1338
203.804	0.1428
204.174	0.1255
204.544	0.1124
204.914	0.1241
205.284	0.1246
205.653	0.1377
206.023	0.1216
206.393	0.1364
206.762	0.1243
207.131	0.1211
207.501	0.1158
207.87	0.1322
208.239	0.1078
208.608	0.1409
208.977	0.1205
209.346	0.1273
209.715	0.1503
210.083	0.126
210.452	0.149
210.82	0.1301
211.189	0.1405
211.557	0.1422
211.925	0.1367
212.294	0.1648
212.662	0.1622
213.03	0.1832
213.398	0.1731
213.766	0.1656
214.133	0.1714
214.501	0.1929
214.869	0.1881
215.236	0.196
215.604	0.1927
215.971	0.2206
216.338	0.2252
216.705	0.2289
217.072	0.2594
217.439	0.2614
217.806	0.282
218.173	0.3051
218.54	0.3237
218.907	0.3566
219.273	0.3977
219.64	0.4318
220.006	0.4627
220.373	0.4861
220.739	0.5343
221.105	0.5791
221.471	0.5844
221.837	0.6496
222.203	0.672
222.569	0.7104
222.935	0.7536
223.3	0.7717
223.666	0.8111
224.031	0.8496
224.397	0.8663
224.762	0.903
225.127	0.9253
225.493	0.9583
225.858	0.9797
226.223	0.9953
226.588	1.0225
226.952	1.034
227.317	1.062
227.682	1.0515
228.046	1.0678
228.411	1.0857
228.775	1.0774
229.14	1.0836
229.504	1.0866
229.868	1.0938
230.232	1.1073
230.596	1.0929
230.96	1.1017
231.324	1.0815
231.688	1.0867
232.052	1.0828
232.415	1.0781
232.779	1.0618
233.142	1.0621
233.505	1.0552
233.869	1.0518
234.232	1.0423
234.595	1.0349
234.958	1.0279
235.321	1.021
235.684	1.0118
236.047	1.0027
236.409	0.9904
236.772	0.9909
237.134	0.9801
237.497	0.9656
237.859	0.9691
238.222	0.9597
238.584	0.9514
238.946	0.9416
239.308	0.9395
239.67	0.9295
240.032	0.9217
240.393	0.9227
240.755	0.9063
241.117	0.9026
241.478	0.8961
241.84	0.8909
242.201	0.8838
242.562	0.8813
242.924	0.8751
243.285	0.8712
243.646	0.8671
244.007	0.866
244.368	0.8604
244.728	0.8518
245.089	0.8509
245.45	0.8445
245.81	0.8433
246.171	0.8393
246.531	0.8365
246.891	0.8341
247.252	0.8308
247.612	0.8326
247.972	0.8259
248.332	0.8246
248.692	0.822
249.051	0.8208
249.411	0.8187
249.771	0.8088
250.13	0.8125
250.49	0.8139
250.849	0.8127
251.208	0.8099
251.568	0.8069
251.927	0.8122
252.286	0.8071
252.645	0.8089
253.004	0.8069
253.363	0.8033
253.721	0.8032
254.08	0.8033
254.439	0.8032
254.797	0.7998
255.155	0.7975
255.514	0.7997
255.872	0.8007
256.23	0.798
256.588	0.7986
256.946	0.7978
257.304	0.7949
257.662	0.7976
258.02	0.7974
258.377	0.7967
258.735	0.7947
259.093	0.7893
259.45	0.7945
259.807	0.7897
260.165	0.7924
260.522	0.7903
260.879	0.7906
261.236	0.7863
261.593	0.7853
261.95	0.7864
262.306	0.7839
262.663	0.7817
263.02	0.7836
263.376	0.7802
263.733	0.7784
264.089	0.7777
264.445	0.7758
264.802	0.7784
265.158	0.7706
265.514	0.7705
265.87	0.7695
266.226	0.7676
266.581	0.7641
266.937	0.7639
267.293	0.7608
267.648	0.7587
268.004	0.7552
268.359	0.7535
268.714	0.7498
269.07	0.7493
269.425	0.7453
269.78	0.7422
270.135	0.7407
270.49	0.7404
270.844	0.7348
271.199	0.7319
271.554	0.7283
271.908	0.7276
272.263	0.7245
272.617	0.7202
272.972	0.7169
273.326	0.7102
273.68	0.7092
274.034	0.7067
274.388	0.699
274.742	0.6976
275.096	0.6946
275.45	0.6903
275.803	0.6867
276.157	0.6827
276.51	0.6772
276.864	0.6718
277.217	0.667
277.571	0.6642
277.924	0.6592
278.277	0.6569
278.63	0.6498
278.983	0.6443
279.336	0.6399
279.688	0.6347
280.041	0.6301
280.394	0.6256
280.746	0.6182
281.099	0.6154
281.451	0.6089
281.803	0.6021
282.156	0.5985
282.508	0.5927
282.86	0.587
283.212	0.5829
283.564	0.5764
283.916	0.5703
284.267	0.5648
284.619	0.5598
284.971	0.5535
285.322	0.5479
285.673	0.5415
286.025	0.5362
286.376	0.5317
286.727	0.5254
287.078	0.5183
287.429	0.5133
287.78	0.5061
288.131	0.5013
288.482	0.4955
288.833	0.4883
289.183	0.4838
289.534	0.478
289.884	0.4705
290.235	0.4638
290.585	0.4591
290.935	0.4515
291.285	0.4469
291.635	0.4406
291.985	0.4347
292.335	0.4294
292.685	0.4226
293.035	0.417
293.384	0.41
293.734	0.4038
294.083	0.3988
294.433	0.3927
294.782	0.3875
295.131	0.381
295.48	0.3755
295.829	0.3697
296.179	0.3641
296.527	0.3582
296.876	0.353
297.225	0.3468
297.574	0.3417
297.922	0.3365
298.271	0.33
298.619	0.3257
298.968	0.32
299.316	0.3151
299.664	0.3108
300.012	0.3061
300.36	0.3014
300.708	0.2971
301.056	0.2919
301.404	0.2874
301.752	0.2839
302.099	0.2788
302.447	0.2751
302.794	0.2706
303.142	0.2671
303.489	0.2631
303.836	0.2598
304.183	0.2566
304.531	0.2524
304.878	0.2493
305.224	0.2463
305.571	0.2426
305.918	0.2399
306.265	0.2376
306.611	0.2348
306.958	0.232
307.304	0.2296
307.651	0.2271
307.997	0.2254
308.343	0.2232
308.689	0.2212
309.035	0.219
309.381	0.2179
309.727	0.2161
310.073	0.2148
310.419	0.2138
310.764	0.2115
311.11	0.2105
311.455	0.2102
311.801	0.2084
312.146	0.2079
312.491	0.2071
312.837	0.2064
313.182	0.2059
313.527	0.2053
313.872	0.2059
314.216	0.2053
314.561	0.2056
314.906	0.2048
315.251	0.2051
315.595	0.2048
315.94	0.2055
316.284	0.2063
316.628	0.2063
316.972	0.2066
317.317	0.2074
317.661	0.2084
318.005	0.2084
318.348	0.2096
318.692	0.2092
319.036	0.2113
319.38	0.2122
319.723	0.2132
320.067	0.214
320.41	0.2159
320.754	0.2165
321.097	0.2187
321.44	0.2197
321.783	0.2217
322.126	0.2226
322.469	0.2237
322.812	0.2263
323.155	0.2278
323.498	0.2296
323.84	0.2318
324.183	0.2339
324.525	0.2352
324.868	0.2363
325.21	0.2395
325.552	0.2408
325.894	0.2429
326.236	0.2441
326.578	0.2468
326.92	0.2493
327.262	0.2509
327.604	0.253
327.946	0.2556
328.287	0.2573
328.629	0.2594
328.97	0.2617
329.312	0.2643
329.653	0.2666
329.994	0.2681
330.335	0.271
330.676	0.2734
331.017	0.276
331.358	0.2789
331.699	0.2806
332.04	0.2841
332.38	0.2859
332.721	0.2881
333.061	0.2903
333.402	0.2926
333.742	0.2951
334.083	0.2977
334.423	0.2987
334.763	0.3009
335.103	0.3028
335.443	0.3054
335.783	0.3071
336.123	0.3086
336.462	0.3114
336.802	0.3127
337.141	0.3152
337.481	0.3161
337.82	0.3186
338.16	0.3199
338.499	0.3221
338.838	0.3247
339.177	0.3264
339.516	0.3282
339.855	0.3294
340.194	0.3321
340.533	0.3333
340.872	0.3349
341.21	0.3371
341.549	0.338
341.887	0.3395
342.226	0.3403
342.564	0.342
342.902	0.3417
343.24	0.343
343.578	0.3431
343.916	0.3443
344.254	0.3448
344.592	0.3448
344.93	0.3464
345.268	0.3475
345.605	0.3471
345.943	0.3478
346.28	0.3482
346.618	0.348
346.955	0.3484
347.292	0.3491
347.629	0.35
347.966	0.3498
348.303	0.3505
348.64	0.35
348.977	0.3505
349.314	0.3506
349.65	0.3508
349.987	0.3512
350.324	0.3504
350.66	0.3504
350.996	0.3495
351.333	0.349
351.669	0.3487
352.005	0.347
352.341	0.3475
352.677	0.3458
353.013	0.3443
353.349	0.3433
353.685	0.3416
354.02	0.3406
354.356	0.3392
354.691	0.3376
355.027	0.3361
355.362	0.3352
355.697	0.3345
356.033	0.3329
356.368	0.3301
356.703	0.3301
357.038	0.3283
357.373	0.3267
357.707	0.3256
358.042	0.3246
358.377	0.3228
358.711	0.3219
359.046	0.3205
359.38	0.319
359.715	0.318
360.049	0.3162
360.383	0.3134
360.717	0.3131
361.051	0.3102
361.385	0.308
361.719	0.3065
362.053	0.3029
362.387	0.3005
362.72	0.2981
363.054	0.2964
363.387	0.2935
363.721	0.2909
364.054	0.288
364.387	0.2853
364.721	0.2835
365.054	0.2807
365.387	0.2778
365.72	0.2753
366.053	0.2741
366.385	0.2722
366.718	0.269
367.051	0.267
367.383	0.2643
367.716	0.2624
368.048	0.2613
368.381	0.2588
368.713	0.2568
369.045	0.2546
369.377	0.2533
369.709	0.2512
370.041	0.2491
370.373	0.247
370.705	0.2443
371.037	0.2424
371.368	0.2401
371.7	0.2383
372.031	0.235
372.363	0.2333
372.694	0.2299
373.025	0.227
373.356	0.2241
373.688	0.2213
374.019	0.2183
374.35	0.2154
374.68	0.2126
375.011	0.2087
375.342	0.2068
375.673	0.2034
376.003	0.2023
376.334	0.1989
376.664	0.1957
376.995	0.1938
377.325	0.1917
377.655	0.1888
377.985	0.1869
378.315	0.185
378.645	0.1832
378.975	0.1809
379.305	0.1788
379.635	0.177
379.964	0.1755
380.294	0.1736
380.623	0.1719
380.953	0.1691
381.282	0.1672
381.611	0.1658
381.941	0.1639
382.27	0.1619
382.599	0.1595
382.928	0.1579
383.257	0.1559
383.585	0.154
383.914	0.152
384.243	0.1495
384.571	0.1463
384.9	0.145
385.228	0.1419
385.557	0.1397
385.885	0.1378
386.213	0.1353
386.541	0.1328
386.869	0.1301
387.197	0.1284
387.525	0.1252
387.853	0.1238
388.181	0.1213
388.508	0.1198
388.836	0.1167
389.164	0.1159
389.491	0.1143
389.818	0.1125
390.146	0.11
390.473	0.1084
390.8	0.1074
391.127	0.1051
391.454	0.1042
391.781	0.1031
392.108	0.1011
392.435	0.0997
392.761	0.0982
393.088	0.0967
393.415	0.096
393.741	0.0945
394.067	0.0935
394.394	0.0922
394.72	0.0908
395.046	0.0898
395.372	0.0889
395.698	0.0875
396.024	0.0861
396.35	0.0851
396.676	0.0833
397.001	0.0823
397.327	0.0808
397.653	0.0804
397.978	0.0776
398.303	0.0771
398.629	0.0757
398.954	0.0749
399.279	0.0738
399.604	0.0726
399.929	0.0715
400.254	0.071
400.579	0.0704
400.904	0.0686
401.229	0.0678
401.553	0.0674
401.878	0.0665
402.202	0.0656
402.527	0.0645
402.851	0.0638
403.175	0.0634
403.5	0.0629
403.824	0.0621
404.148	0.0613
404.472	0.061
404.796	0.0607
405.119	0.0607
405.443	0.0598
405.767	0.0592
406.09	0.0596
406.414	0.0584
406.737	0.058
407.061	0.0583
407.384	0.0581
407.707	0.0576
408.03	0.0573
408.353	0.0572
408.676	0.0569
408.999	0.0563
409.322	0.0565
409.645	0.0565
409.968	0.056
410.29	0.0555
410.613	0.0557
410.935	0.0559
411.258	0.056
411.58	0.0559
411.902	0.0554
412.224	0.0554
412.546	0.0549
412.868	0.0554
413.19	0.0549
413.512	0.0551
413.834	0.0549
414.156	0.0546
414.477	0.0546
414.799	0.0538
415.121	0.0551
415.442	0.0546
415.763	0.0548
416.085	0.0552
416.406	0.0546
416.727	0.0546
417.048	0.0552
417.369	0.0551
417.69	0.0552
418.011	0.0554
418.331	0.0552
418.652	0.0561
418.973	0.0559
419.293	0.0561
419.614	0.0561
419.934	0.0563
420.254	0.0564
420.574	0.0556
420.895	0.0552
421.215	0.0562
421.535	0.0556
421.855	0.0556
422.174	0.056
422.494	0.0556
422.814	0.0567
423.134	0.0564
423.453	0.057
423.773	0.0565
424.092	0.0571
424.411	0.057
424.731	0.0569
425.05	0.0577
425.369	0.0571
425.688	0.0577
426.007	0.0573
426.326	0.0577
426.644	0.0576
426.963	0.058
427.282	0.0576
427.6	0.0579
427.919	0.0581
428.237	0.0586
428.556	0.0585
428.874	0.0581
429.192	0.0592
429.51	0.0582
429.828	0.0581
430.146	0.0588
430.464	0.0585
430.782	0.059
431.1	0.0592
431.418	0.0591
431.735	0.0593
432.053	0.0596
432.37	0.0591
432.688	0.0594
433.005	0.0601
433.322	0.0597
433.639	0.0597
433.957	0.0603
434.274	0.0597
434.591	0.0596
434.907	0.0602
435.224	0.0604
435.541	0.0612
435.858	0.0611
436.174	0.0607
436.491	0.0606
436.807	0.0602
437.124	0.0611
437.44	0.0604
437.756	0.0601
438.072	0.0601
438.388	0.0604
438.704	0.0606
439.02	0.0601
439.336	0.0601
439.652	0.0602
439.968	0.0605
440.283	0.0603
440.599	0.0609
440.914	0.0605
441.23	0.0597
441.545	0.0591
441.86	0.0596
442.175	0.0599
442.491	0.0605
442.806	0.0606
443.121	0.0609
443.435	0.0602
443.75	0.0603
444.065	0.0601
444.38	0.0604
444.694	0.0606
445.009	0.0604
445.323	0.0601
445.638	0.0597
445.952	0.0598
446.266	0.0597
446.58	0.0597
446.894	0.0588
447.208	0.0594
447.522	0.0592
447.836	0.0584
448.15	0.0587
448.464	0.0584
448.777	0.0581
449.091	0.0584
449.404	0.0579
449.718	0.0579
450.031	0.0583
450.345	0.0578
450.658	0.0581
450.971	0.0581
451.284	0.0577
451.597	0.0585
451.91	0.0575
452.223	0.0575
452.535	0.0575
452.848	0.0583
453.161	0.0576
453.473	0.0572
453.786	0.058
454.098	0.057
454.411	0.0575
454.723	0.0568
455.035	0.0568
455.347	0.0566
455.659	0.0553
455.971	0.0549
456.283	0.0551
456.595	0.0553
456.907	0.0551
457.218	0.0555
457.53	0.0549
457.841	0.0548
458.153	0.0552
458.464	0.0542
458.776	0.0548
459.087	0.0537
459.398	0.0533
459.709	0.0535
460.02	0.0538
460.331	0.0529
460.642	0.0528
460.953	0.0531
461.263	0.0524
461.574	0.0522
461.885	0.0519
462.195	0.0519
462.506	0.0521
462.816	0.0519
463.126	0.0513
463.437	0.0507
463.747	0.051
464.057	0.0514
464.367	0.0509
464.677	0.0502
464.987	0.0502
465.296	0.0495
465.606	0.049
465.916	0.0494
466.225	0.0493
466.535	0.049
466.844	0.049
467.154	0.0483
467.463	0.0473
467.772	0.0471
468.081	0.0479
468.39	0.047
468.699	0.0466
469.008	0.0469
469.317	0.0475
469.626	0.0469
469.935	0.0459
470.243	0.0459
470.552	0.0453
470.86	0.0437
471.169	0.0442
471.477	0.0445
471.785	0.0442
472.093	0.0438
472.402	0.043
472.71	0.043
473.018	0.0431
473.326	0.0429
473.633	0.042
473.941	0.0414
474.249	0.0419
474.556	0.0413
474.864	0.0413
475.171	0.0406
475.479	0.0409
475.786	0.0396
476.094	0.0402
476.401	0.0407
476.708	0.0393
477.015	0.0398
477.322	0.0391
477.629	0.0386
477.936	0.0388
478.242	0.0382
478.549	0.0375
478.856	0.0369
479.162	0.0371
479.469	0.0368
479.775	0.0363
480.081	0.0371
480.388	0.0365
480.694	0.0361
481	0.0362
481.306	0.0359
481.612	0.0354
481.918	0.0355
482.224	0.0353
482.53	0.0339
482.835	0.0335
483.141	0.0335
483.446	0.0341
483.752	0.033
484.057	0.0332
484.363	0.0331
484.668	0.0321
484.973	0.0321
485.278	0.0322
485.583	0.0314
485.888	0.0309
486.193	0.0308
486.498	0.0311
486.803	0.0308
487.107	0.0299
487.412	0.0295
487.717	0.0284
488.021	0.0289
488.325	0.0287
488.63	0.0286
488.934	0.0279
489.238	0.0278
489.542	0.0272
489.846	0.0276
490.15	0.0264
490.454	0.0262
490.758	0.0265
491.062	0.0266
491.366	0.0258
491.669	0.0253
491.973	0.0257
492.276	0.0258
492.58	0.0255
492.883	0.025
493.186	0.0249
493.489	0.0242
493.792	0.0241
494.096	0.0236
494.399	0.0234
494.701	0.0232
495.004	0.0229
495.307	0.0234
495.61	0.0237
495.912	0.0225
496.215	0.0225
496.517	0.0221
496.82	0.022
497.122	0.0219
497.424	0.0212
497.727	0.0201
498.029	0.021
498.331	0.0199
498.633	0.0206
498.935	0.0202
499.237	0.0193
499.538	0.0202
499.84	0.0206
500.142	0.0188
500.443	0.0198
500.745	0.0194
501.046	0.0187
501.348	0.018
501.649	0.0185
501.95	0.0183
502.251	0.0177
502.552	0.0171
502.853	0.0172
503.154	0.0169
503.455	0.0174
503.756	0.0168
504.057	0.0164
504.357	0.0174
504.658	0.0164
504.958	0.0157
505.259	0.0157
505.559	0.0154
505.859	0.0152
506.16	0.0159
506.46	0.0139
506.76	0.0149
507.06	0.0154
507.36	0.0146
507.66	0.0148
507.96	0.0138
508.259	0.0137
508.559	0.0138
508.859	0.0131
509.158	0.0139
509.457	0.0137
509.757	0.0127
510.056	0.0124
510.355	0.0117
510.655	0.0125
510.954	0.012
511.253	0.0126
511.552	0.0116
511.851	0.0112
512.149	0.0112
512.448	0.0113
512.747	0.0111
513.045	0.0106
513.344	0.0106
513.642	0.0119
513.941	0.0106
514.239	0.0108
514.537	0.0108
514.836	0.0101
515.134	0.0108
515.432	0.0113
515.73	0.0105
516.028	0.0094
516.326	0.0096
516.623	0.0099
516.921	0.0103
517.219	0.0111
517.516	0.01
517.814	0.0097
518.111	0.008
518.409	0.0082
518.706	0.009
519.003	0.0075
519.3	0.0085
519.597	0.0081
519.894	0.0085
520.191	0.009
520.488	0.0086
520.785	0.0079
521.082	0.0086
521.378	0.0078
521.675	0.0072
521.971	0.0071
522.268	0.008
522.564	0.0068
522.861	0.007
523.157	0.0065
523.453	0.007
523.749	0.0065
524.045	0.0056
524.341	0.0067
524.637	0.0067
524.933	0.0066
525.229	0.0071
525.524	0.0065
525.82	0.0054
526.115	0.006
526.411	0.0062
526.706	0.0049
527.002	0.0049
527.297	0.0048
527.592	0.0058
527.887	0.0045
528.182	0.0051
528.477	0.0046
528.772	0.0038
529.067	0.0047
529.362	0.0039
529.657	0.0046
529.951	0.0045
530.246	0.0051
530.54	0.0048
530.835	0.0039
531.129	0.0064
531.423	0.0039
531.718	0.0038
532.012	0.0044
532.306	0.0044
532.6	0.0041
532.894	0.0052
533.188	0.0035
533.482	0.0044
533.775	0.0046
534.069	0.0029
534.363	0.003
534.656	0.0034
534.95	0.0026
535.243	0.003
535.536	0.0041
535.83	0.0031
536.123	0.0034
536.416	0.0036
536.709	0.0026
537.002	0.0026
537.295	0.0022
537.588	0.0028
537.881	0.0027
538.173	0.0025
538.466	0.0033
538.759	0.002
539.051	0.0029
539.344	0.0028
539.636	0.0032
539.928	0.0024
540.22	0.0022
540.513	0.0025
540.805	0.0026
541.097	0.0021
541.389	0.002
541.681	0.0033
541.972	0.0013
542.264	0.0027
542.556	0.0023
542.847	0.0016
543.139	0.0019
543.431	0.002
543.722	0.002
544.013	0.001
544.305	0.0027
544.596	0.0013
544.887	0.0014
545.178	0.0012
545.469	0.0015
545.76	0.0023
546.051	0.0018
546.342	0.0015
546.632	0.0037
546.923	0.0018
547.214	0.0017
547.504	0.002
547.795	0.0022
548.085	0.0024
548.375	0.0014
548.666	0.0005
548.956	0.0026
549.246	0.0009
549.536	0.002
549.826	0.001
550.116	0.0016
550.406	0.0018
550.695	0.0012
550.985	0.0016
551.275	0.001
551.564	0.0012
551.854	0.0027
552.143	0.0021
552.433	0.002
552.722	0.0008
553.011	0.0012
553.3	0.0019
553.589	0.0007
553.879	0.0005
554.167	0.0008
554.456	0.001
554.745	0.0015
555.034	0.0003
555.323	0.0003
555.611	0.0003
555.9	0.001
556.188	0.0004
556.477	0.0009
556.765	0
557.053	0.001
557.342	0.0012
557.63	0.0001
557.918	-0.0002
558.206	0.0018
558.494	0.0023
558.782	0.0018
559.069	0.0015
559.357	0.0026
559.645	0.003
559.932	0.0011
560.22	0.0026
560.507	0
560.795	0.0017
561.082	0.0003
561.37	0.0006
561.657	0.0019
561.944	0.0004
562.231	0.0002
562.518	0.0005
562.805	0.0001
563.092	-0
563.379	0.0007
563.665	0.0008
563.952	0.0005
564.239	0.0018
564.525	0.0006
564.811	0.0019
565.098	0.0007
565.384	0.0016
565.67	0.0017
565.957	0.0029
566.243	0.0016
566.529	0.0025
566.815	0.0011
567.101	0.0013
567.387	0.0009
567.672	-0
567.958	0.0015
568.244	0.0004
568.529	0.0014
568.815	0.0013
569.1	0
569.386	0.0016
569.671	0.0027
569.956	0.0019
570.242	0.0026
570.527	0.002
570.812	0.0016
571.097	0.0016
571.382	0.0026
571.666	0.0024
571.951	0.002
572.236	0.0025
572.521	0.0028
572.805	0.0026
573.09	0.0013
573.374	0.0011
573.659	0.003
573.943	0.0023
574.227	0.0023
574.511	0.0026
574.795	0.0027
575.079	0.0026
575.363	0.0015
575.647	0.002
575.931	0.0022
576.215	0.0007
576.499	0.0008
576.782	0.002
577.066	0.0005
577.349	0.002
577.633	0.0011
577.916	0.0016
578.2	0.0022
578.483	0.0019
578.766	0.002
579.049	0.0029
579.332	0.0025
579.615	0.0019
579.898	0.0015
580.181	0.0019
580.464	0.0012
580.746	0.0016
581.029	0.0024
581.312	0.0014
581.594	0.0012
581.877	0.0022
582.159	0.0015
582.441	0.0016
582.724	0.0012
583.006	0.0025
583.288	0.0016
583.57	0.0018
583.852	0.0006
584.134	0
584.416	0.0009
584.697	0.0016
584.979	0.0012
585.261	0.0009
585.542	0.0024
585.824	0.0007
586.105	0.0009
586.387	0.0013
586.668	0.0009
586.949	0.0011
587.231	0.0012
587.512	0.0012
587.793	0.0017
588.074	0.0018
588.355	0.0012
588.636	0.0016
588.916	0.0016
589.197	0.0017
589.478	0.0009
589.758	0.0013
590.039	0.0015
590.319	0.0015
590.6	0.001
590.88	0.0006
591.16	0.0001
591.441	-0.0003
591.721	0.0013
592.001	0.0007
592.281	0.0007
592.561	0.0011
592.841	0.0006
593.12	0.0012
593.4	0.0007
593.68	0.0008
593.959	0.0009
594.239	0.0015
594.518	0.0016
594.798	0
595.077	0.0015
595.356	0.0017
595.636	0.0008
595.915	0.0007
596.194	0.0011
596.473	0.0007
596.752	0.001
597.031	0.0004
