Data from 03 0.5 mM K2Cr2O7 0.2 mM BQDS 1 M H2SO4 5 min_Absorbance_0087.txt Node
Date: Thu Dec 09 23:01:45 EST 2021
User: kwabilab-user
Spectrometer: HDX00518
Trigger mode: 0
Integration Time (sec): 5.000000E-2
Scans to average: 50
Nonlinearity correction enabled: false
Boxcar width: 0
Storing dark spectrum: false
XAxis mode: Wavelengths
Number of Pixels in Spectrum: 2068
>>>>>Begin Spectral Data<<<<<
195.27	0.1431
195.642	0.3777
196.014	0.1483
196.386	0.2375
196.758	0.0645
197.129	0.0158
197.501	0.0647
197.872	0.0926
198.244	0.1296
198.615	0.1208
198.986	0.1288
199.357	0.1016
199.728	0.1085
200.099	0.1185
200.47	0.1346
200.841	0.1287
201.212	0.1284
201.582	0.1281
201.953	0.1175
202.323	0.1259
202.694	0.127
203.064	0.114
203.434	0.1261
203.804	0.1214
204.174	0.1226
204.544	0.1232
204.914	0.1427
205.284	0.1139
205.653	0.1117
206.023	0.1391
206.393	0.1418
206.762	0.125
207.131	0.1182
207.501	0.1365
207.87	0.1414
208.239	0.1139
208.608	0.15
208.977	0.1314
209.346	0.1432
209.715	0.1452
210.083	0.1396
210.452	0.149
210.82	0.1439
211.189	0.1438
211.557	0.1602
211.925	0.1381
212.294	0.1516
212.662	0.1739
213.03	0.1746
213.398	0.1694
213.766	0.163
214.133	0.1815
214.501	0.1776
214.869	0.1923
215.236	0.198
215.604	0.2114
215.971	0.2208
216.338	0.2391
216.705	0.2338
217.072	0.2603
217.439	0.2627
217.806	0.3005
218.173	0.3177
218.54	0.3389
218.907	0.3644
219.273	0.399
219.64	0.4152
220.006	0.4639
220.373	0.4757
220.739	0.5165
221.105	0.5692
221.471	0.5955
221.837	0.647
222.203	0.6948
222.569	0.7138
222.935	0.7539
223.3	0.7887
223.666	0.8141
224.031	0.8598
224.397	0.8721
224.762	0.9034
225.127	0.9405
225.493	0.9625
225.858	0.966
226.223	1.0001
226.588	1.0256
226.952	1.0351
227.317	1.0667
227.682	1.0606
228.046	1.0652
228.411	1.0724
228.775	1.0889
229.14	1.0791
229.504	1.0798
229.868	1.0942
230.232	1.0833
230.596	1.0871
230.96	1.1021
231.324	1.0766
231.688	1.0773
232.052	1.0763
232.415	1.0608
232.779	1.0634
233.142	1.0606
233.505	1.0491
233.869	1.0476
234.232	1.0372
234.595	1.0222
234.958	1.0215
235.321	1.0105
235.684	1.0027
236.047	0.9997
236.409	0.9873
236.772	0.9782
237.134	0.9694
237.497	0.9593
237.859	0.9546
238.222	0.9467
238.584	0.9408
238.946	0.9297
239.308	0.9215
239.67	0.9091
240.032	0.9098
240.393	0.8977
240.755	0.8942
241.117	0.8902
241.478	0.8892
241.84	0.8785
242.201	0.8682
242.562	0.8643
242.924	0.858
243.285	0.8551
243.646	0.8456
244.007	0.8479
244.368	0.8431
244.728	0.8315
245.089	0.8296
245.45	0.8264
245.81	0.8212
246.171	0.8205
246.531	0.8156
246.891	0.8148
247.252	0.8128
247.612	0.8086
247.972	0.8053
248.332	0.8044
248.692	0.802
249.051	0.7981
249.411	0.7979
249.771	0.7915
250.13	0.7911
250.49	0.7873
250.849	0.79
251.208	0.7888
251.568	0.7816
251.927	0.7857
252.286	0.7864
252.645	0.7829
253.004	0.7794
253.363	0.7796
253.721	0.7791
254.08	0.7762
254.439	0.7767
254.797	0.7762
255.155	0.7737
255.514	0.7745
255.872	0.7735
256.23	0.7714
256.588	0.7731
256.946	0.7699
257.304	0.7705
257.662	0.7707
258.02	0.7681
258.377	0.7664
258.735	0.7695
259.093	0.7639
259.45	0.7664
259.807	0.7664
260.165	0.7628
260.522	0.7625
260.879	0.7583
261.236	0.761
261.593	0.7581
261.95	0.7587
262.306	0.7562
262.663	0.7538
263.02	0.7523
263.376	0.7538
263.733	0.7533
264.089	0.749
264.445	0.7461
264.802	0.7465
265.158	0.7456
265.514	0.7433
265.87	0.7414
266.226	0.7393
266.581	0.7377
266.937	0.7337
267.293	0.7324
267.648	0.7293
268.004	0.7291
268.359	0.7282
268.714	0.7231
269.07	0.7196
269.425	0.7175
269.78	0.7157
270.135	0.7146
270.49	0.7118
270.844	0.7071
271.199	0.7056
271.554	0.7035
271.908	0.7014
272.263	0.6972
272.617	0.6938
272.972	0.6901
273.326	0.687
273.68	0.6863
274.034	0.6805
274.388	0.6765
274.742	0.6735
275.096	0.673
275.45	0.6659
275.803	0.6631
276.157	0.6591
276.51	0.6541
276.864	0.6495
277.217	0.6445
277.571	0.6418
277.924	0.6377
278.277	0.6341
278.63	0.6301
278.983	0.622
279.336	0.6179
279.688	0.6138
280.041	0.6085
280.394	0.6066
280.746	0.5983
281.099	0.5963
281.451	0.5906
281.803	0.5836
282.156	0.5796
282.508	0.5729
282.86	0.5695
283.212	0.5618
283.564	0.5592
283.916	0.5521
284.267	0.5481
284.619	0.5412
284.971	0.5367
285.322	0.5309
285.673	0.5255
286.025	0.5204
286.376	0.5149
286.727	0.509
287.078	0.5015
287.429	0.4971
287.78	0.4909
288.131	0.4863
288.482	0.4791
288.833	0.4725
289.183	0.4668
289.534	0.461
289.884	0.4553
290.235	0.4488
290.585	0.4436
290.935	0.4385
291.285	0.4312
291.635	0.4267
291.985	0.4204
292.335	0.4135
292.685	0.4086
293.035	0.4021
293.384	0.3966
293.734	0.3909
294.083	0.385
294.433	0.3789
294.782	0.373
295.131	0.3675
295.48	0.3616
295.829	0.3559
296.179	0.3508
296.527	0.3444
296.876	0.3388
297.225	0.3333
297.574	0.3287
297.922	0.3233
298.271	0.3181
298.619	0.3129
298.968	0.3078
299.316	0.3022
299.664	0.2987
300.012	0.2927
300.36	0.2884
300.708	0.2838
301.056	0.2799
301.404	0.2745
301.752	0.2708
302.099	0.2666
302.447	0.2628
302.794	0.259
303.142	0.2548
303.489	0.2506
303.836	0.2472
304.183	0.244
304.531	0.2407
304.878	0.2377
305.224	0.2342
305.571	0.2312
305.918	0.2289
306.265	0.2255
306.611	0.2226
306.958	0.2211
307.304	0.2177
307.651	0.2153
307.997	0.2137
308.343	0.212
308.689	0.2096
309.035	0.2083
309.381	0.2066
309.727	0.2052
310.073	0.2036
310.419	0.2018
310.764	0.201
311.11	0.1996
311.455	0.1987
311.801	0.1978
312.146	0.1975
312.491	0.1962
312.837	0.1958
313.182	0.1955
313.527	0.1949
313.872	0.1951
314.216	0.1938
314.561	0.1941
314.906	0.1944
315.251	0.1942
315.595	0.1942
315.94	0.1946
316.284	0.1949
316.628	0.1951
316.972	0.1958
317.317	0.196
317.661	0.1983
318.005	0.197
318.348	0.1984
318.692	0.1991
319.036	0.2004
319.38	0.2016
319.723	0.2027
320.067	0.2039
320.41	0.205
320.754	0.2055
321.097	0.2079
321.44	0.2086
321.783	0.2102
322.126	0.2111
322.469	0.2131
322.812	0.2142
323.155	0.216
323.498	0.2185
323.84	0.22
324.183	0.222
324.525	0.2241
324.868	0.2255
325.21	0.2274
325.552	0.2293
325.894	0.2312
326.236	0.2328
326.578	0.2355
326.92	0.2372
327.262	0.2398
327.604	0.2415
327.946	0.2431
328.287	0.2453
328.629	0.2475
328.97	0.2503
329.312	0.2521
329.653	0.2545
329.994	0.257
330.335	0.2589
330.676	0.2616
331.017	0.2642
331.358	0.267
331.699	0.2684
332.04	0.2711
332.38	0.2734
332.721	0.2752
333.061	0.2777
333.402	0.2795
333.742	0.2823
334.083	0.2847
334.423	0.2861
334.763	0.2878
335.103	0.2896
335.443	0.2919
335.783	0.2943
336.123	0.2958
336.462	0.2978
336.802	0.2988
337.141	0.3017
337.481	0.3034
337.82	0.3053
338.16	0.3068
338.499	0.3087
338.838	0.3113
339.177	0.3127
339.516	0.3146
339.855	0.3162
340.194	0.3184
340.533	0.3197
340.872	0.3219
341.21	0.3234
341.549	0.3242
341.887	0.325
342.226	0.3263
342.564	0.3277
342.902	0.3276
343.24	0.3292
343.578	0.33
343.916	0.3313
344.254	0.3315
344.592	0.3317
344.93	0.3328
345.268	0.3336
345.605	0.3338
345.943	0.3339
346.28	0.3351
346.618	0.3346
346.955	0.3349
347.292	0.3354
347.629	0.3359
347.966	0.3366
348.303	0.3366
348.64	0.3363
348.977	0.3376
349.314	0.3368
349.65	0.3374
349.987	0.3381
350.324	0.3367
350.66	0.3371
350.996	0.3361
351.333	0.3359
351.669	0.3359
352.005	0.3342
352.341	0.3335
352.677	0.3326
353.013	0.331
353.349	0.3305
353.685	0.3288
354.02	0.3266
354.356	0.3267
354.691	0.3249
355.027	0.3235
355.362	0.3229
355.697	0.321
356.033	0.3199
356.368	0.3183
356.703	0.3174
357.038	0.3151
357.373	0.3157
357.707	0.3145
358.042	0.3131
358.377	0.3107
358.711	0.3097
359.046	0.3086
359.38	0.3075
359.715	0.3061
360.049	0.3042
360.383	0.3024
360.717	0.3007
361.051	0.298
361.385	0.297
361.719	0.2937
362.053	0.2917
362.387	0.2897
362.72	0.2872
363.054	0.2852
363.387	0.283
363.721	0.2793
364.054	0.2774
364.387	0.2752
364.721	0.273
365.054	0.2699
365.387	0.2674
365.72	0.2649
366.053	0.2633
366.385	0.2607
366.718	0.2581
367.051	0.2566
367.383	0.2546
367.716	0.2523
368.048	0.2512
368.381	0.2487
368.713	0.2465
369.045	0.2447
369.377	0.2431
369.709	0.2418
370.041	0.2397
370.373	0.2373
370.705	0.2341
371.037	0.2333
371.368	0.2307
371.7	0.2283
372.031	0.2259
372.363	0.2233
372.694	0.2213
373.025	0.2182
373.356	0.2153
373.688	0.2119
374.019	0.2094
374.35	0.206
374.68	0.2044
375.011	0.2012
375.342	0.1985
375.673	0.1954
376.003	0.1938
376.334	0.1904
376.664	0.1883
376.995	0.1863
377.325	0.1838
377.655	0.1819
377.985	0.1791
378.315	0.177
378.645	0.1758
378.975	0.1735
379.305	0.171
379.635	0.1696
379.964	0.1688
380.294	0.1668
380.623	0.1643
380.953	0.1617
381.282	0.1606
381.611	0.1584
381.941	0.1577
382.27	0.1547
382.599	0.153
382.928	0.1505
383.257	0.1492
383.585	0.147
383.914	0.1447
384.243	0.1432
384.571	0.14
384.9	0.1377
385.228	0.1355
385.557	0.1332
385.885	0.1316
386.213	0.1289
386.541	0.1259
386.869	0.1244
387.197	0.1221
387.525	0.1192
387.853	0.1181
388.181	0.1162
388.508	0.1139
388.836	0.1116
389.164	0.1101
389.491	0.1094
389.818	0.1075
390.146	0.1048
390.473	0.1031
390.8	0.102
391.127	0.1005
391.454	0.0997
391.781	0.0984
392.108	0.0963
392.435	0.0951
392.761	0.0933
393.088	0.0921
393.415	0.0915
393.741	0.09
394.067	0.0889
394.394	0.0876
394.72	0.0865
395.046	0.085
395.372	0.0845
395.698	0.0829
396.024	0.082
396.35	0.0799
396.676	0.0793
397.001	0.0783
397.327	0.0762
397.653	0.076
397.978	0.0736
398.303	0.0731
398.629	0.0722
398.954	0.0716
399.279	0.0706
399.604	0.0691
399.929	0.0674
400.254	0.067
400.579	0.0665
400.904	0.0654
401.229	0.0639
401.553	0.0637
401.878	0.0627
402.202	0.0621
402.527	0.0611
402.851	0.0602
403.175	0.06
403.5	0.0592
403.824	0.0581
404.148	0.058
404.472	0.0581
404.796	0.0573
405.119	0.0571
405.443	0.0564
405.767	0.0561
406.09	0.0563
406.414	0.0556
406.737	0.0551
407.061	0.0557
407.384	0.0554
407.707	0.0545
408.03	0.054
408.353	0.054
408.676	0.0538
408.999	0.0538
409.322	0.0532
409.645	0.0538
409.968	0.0533
410.29	0.0526
410.613	0.0522
410.935	0.0524
411.258	0.0529
411.58	0.0525
411.902	0.0523
412.224	0.0529
412.546	0.0521
412.868	0.0525
413.19	0.0518
413.512	0.0516
413.834	0.0519
414.156	0.0522
414.477	0.0521
414.799	0.0517
415.121	0.0521
415.442	0.0521
415.763	0.052
416.085	0.0526
416.406	0.0521
416.727	0.0518
417.048	0.0524
417.369	0.0525
417.69	0.0525
418.011	0.0526
418.331	0.0527
418.652	0.053
418.973	0.0528
419.293	0.0532
419.614	0.0535
419.934	0.0535
420.254	0.0534
420.574	0.0531
420.895	0.053
421.215	0.0533
421.535	0.0529
421.855	0.0529
422.174	0.0536
422.494	0.0535
422.814	0.0539
423.134	0.0535
423.453	0.054
423.773	0.0541
424.092	0.0545
424.411	0.0538
424.731	0.0542
425.05	0.0544
425.369	0.0545
425.688	0.055
426.007	0.0551
426.326	0.0554
426.644	0.0549
426.963	0.0561
427.282	0.055
427.6	0.0549
427.919	0.0557
428.237	0.0558
428.556	0.0558
428.874	0.0551
429.192	0.0558
429.51	0.0553
429.828	0.0558
430.146	0.0558
430.464	0.0563
430.782	0.0562
431.1	0.0562
431.418	0.0564
431.735	0.0567
432.053	0.0572
432.37	0.0566
432.688	0.057
433.005	0.0572
433.322	0.0572
433.639	0.0564
433.957	0.0575
434.274	0.0571
434.591	0.057
434.907	0.0576
435.224	0.058
435.541	0.0581
435.858	0.0587
436.174	0.0582
436.491	0.0574
436.807	0.0571
437.124	0.0581
437.44	0.0571
437.756	0.0571
438.072	0.0576
438.388	0.0579
438.704	0.0572
439.02	0.0571
439.336	0.0581
439.652	0.058
439.968	0.0577
440.283	0.0577
440.599	0.0579
440.914	0.0575
441.23	0.0573
441.545	0.0575
441.86	0.0578
442.175	0.0571
442.491	0.0574
442.806	0.0574
443.121	0.0577
443.435	0.0578
443.75	0.0574
444.065	0.0569
444.38	0.0574
444.694	0.0572
445.009	0.0574
445.323	0.0572
445.638	0.0571
445.952	0.0568
446.266	0.057
446.58	0.0559
446.894	0.0567
447.208	0.0572
447.522	0.0565
447.836	0.0564
448.15	0.0564
448.464	0.0561
448.777	0.0563
449.091	0.0554
449.404	0.0562
449.718	0.0556
450.031	0.0558
450.345	0.0553
450.658	0.0563
450.971	0.0552
451.284	0.0561
451.597	0.0559
451.91	0.0552
452.223	0.0547
452.535	0.0555
452.848	0.0556
453.161	0.0551
453.473	0.0554
453.786	0.0554
454.098	0.0549
454.411	0.0556
454.723	0.0547
455.035	0.0547
455.347	0.0542
455.659	0.0528
455.971	0.0528
456.283	0.0535
456.595	0.053
456.907	0.0534
457.218	0.053
457.53	0.0532
457.841	0.0529
458.153	0.0528
458.464	0.0522
458.776	0.0527
459.087	0.0516
459.398	0.0512
459.709	0.0509
460.02	0.051
460.331	0.0512
460.642	0.0501
460.953	0.0508
461.263	0.0507
461.574	0.0496
461.885	0.0506
462.195	0.049
462.506	0.0496
462.816	0.0493
463.126	0.0493
463.437	0.0497
463.747	0.0493
464.057	0.0488
464.367	0.0487
464.677	0.0483
464.987	0.0481
465.296	0.0475
465.606	0.0469
465.916	0.0474
466.225	0.0465
466.535	0.0462
466.844	0.0462
467.154	0.0456
467.463	0.0454
467.772	0.0445
468.081	0.0451
468.39	0.045
468.699	0.0445
469.008	0.0451
469.317	0.0443
469.626	0.0441
469.935	0.0437
470.243	0.0436
470.552	0.0431
470.86	0.0422
471.169	0.0425
471.477	0.0428
471.785	0.0424
472.093	0.0424
472.402	0.0421
472.71	0.0414
473.018	0.0418
473.326	0.0415
473.633	0.0404
473.941	0.0405
474.249	0.0401
474.556	0.0397
474.864	0.0389
475.171	0.0393
475.479	0.0381
475.786	0.0388
476.094	0.0382
476.401	0.0386
476.708	0.0379
477.015	0.0379
477.322	0.0366
477.629	0.0378
477.936	0.0373
478.242	0.0365
478.549	0.0365
478.856	0.036
479.162	0.0356
479.469	0.0356
479.775	0.0346
480.081	0.0359
480.388	0.0347
480.694	0.0343
481	0.0347
481.306	0.0348
481.612	0.0341
481.918	0.0338
482.224	0.0329
482.53	0.0332
482.835	0.0332
483.141	0.0323
483.446	0.0318
483.752	0.0315
484.057	0.0315
484.363	0.0308
484.668	0.03
484.973	0.0294
485.278	0.0302
485.583	0.0295
485.888	0.0281
486.193	0.0283
486.498	0.0298
486.803	0.0302
487.107	0.0282
487.412	0.0275
487.717	0.0268
488.021	0.0271
488.325	0.0273
488.63	0.0281
488.934	0.0271
489.238	0.0263
489.542	0.0269
489.846	0.0261
490.15	0.0249
490.454	0.0256
490.758	0.0252
491.062	0.0249
491.366	0.0243
491.669	0.0239
491.973	0.0246
492.276	0.0239
492.58	0.0243
492.883	0.0242
493.186	0.0231
493.489	0.0225
493.792	0.0217
494.096	0.0218
494.399	0.0222
494.701	0.0224
495.004	0.0219
495.307	0.0227
495.61	0.0221
495.912	0.0214
496.215	0.0211
496.517	0.0203
496.82	0.0216
497.122	0.0203
497.424	0.0207
497.727	0.02
498.029	0.0199
498.331	0.0192
498.633	0.0194
498.935	0.0189
499.237	0.0187
499.538	0.0191
499.84	0.0195
500.142	0.0185
500.443	0.019
500.745	0.0178
501.046	0.0176
501.348	0.0173
501.649	0.0181
501.95	0.0177
502.251	0.017
502.552	0.0171
502.853	0.0162
503.154	0.0169
503.455	0.0173
503.756	0.0158
504.057	0.0163
504.357	0.0147
504.658	0.0167
504.958	0.015
505.259	0.0158
505.559	0.0157
505.859	0.015
506.16	0.0147
506.46	0.0136
506.76	0.0145
507.06	0.0142
507.36	0.0143
507.66	0.0149
507.96	0.0128
508.259	0.0123
508.559	0.0137
508.859	0.0126
509.158	0.0133
509.457	0.0137
509.757	0.0119
510.056	0.0116
510.355	0.0116
510.655	0.0119
510.954	0.0113
511.253	0.0118
511.552	0.0103
511.851	0.0114
512.149	0.0101
512.448	0.0116
512.747	0.0106
513.045	0.0108
513.344	0.0113
513.642	0.0121
513.941	0.0102
514.239	0.0109
514.537	0.0108
514.836	0.0107
515.134	0.0097
515.432	0.0108
515.73	0.01
516.028	0.0091
516.326	0.0095
516.623	0.0091
516.921	0.0099
517.219	0.0109
517.516	0.0095
517.814	0.0098
518.111	0.0091
518.409	0.0082
518.706	0.01
519.003	0.0074
519.3	0.0085
519.597	0.0079
519.894	0.0075
520.191	0.0073
520.488	0.0071
520.785	0.0073
521.082	0.0072
521.378	0.0075
521.675	0.0076
521.971	0.0065
522.268	0.0082
522.564	0.0073
522.861	0.0066
523.157	0.0071
523.453	0.0075
523.749	0.0067
524.045	0.0058
524.341	0.0062
524.637	0.0065
524.933	0.0061
525.229	0.0065
525.524	0.006
525.82	0.0061
526.115	0.0052
526.411	0.0051
526.706	0.006
527.002	0.0041
527.297	0.0052
527.592	0.0062
527.887	0.0058
528.182	0.0052
528.477	0.0052
528.772	0.0033
529.067	0.004
529.362	0.0039
529.657	0.004
529.951	0.0044
530.246	0.0043
530.54	0.0044
530.835	0.0045
531.129	0.0059
531.423	0.004
531.718	0.0057
532.012	0.0039
532.306	0.0043
532.6	0.0048
532.894	0.0038
533.188	0.003
533.482	0.0049
533.775	0.0046
534.069	0.0036
534.363	0.0022
534.656	0.003
534.95	0.0033
535.243	0.0026
535.536	0.0033
535.83	0.0031
536.123	0.0036
536.416	0.0038
536.709	0.0027
537.002	0.0018
537.295	0.0017
537.588	0.003
537.881	0.0035
538.173	0.0032
538.466	0.0034
538.759	0.0019
539.051	0.0037
539.344	0.0031
539.636	0.0026
539.928	0.0038
540.22	0.0024
540.513	0.0026
540.805	0.0022
541.097	0.0015
541.389	0.0016
541.681	0.0033
541.972	0.0027
542.264	0.0026
542.556	0.0028
542.847	0.0015
543.139	0.0015
543.431	0.0017
543.722	0.0015
544.013	0.0008
544.305	0.003
544.596	0.0011
544.887	0.0012
545.178	0.0016
545.469	0.0005
545.76	0.0024
546.051	0.0022
546.342	0.0005
546.632	0.0031
546.923	0.002
547.214	0.0012
547.504	0.0022
547.795	0.0016
548.085	0.0018
548.375	0.0029
548.666	0.0018
548.956	0.0038
549.246	0.0014
549.536	0.0031
549.826	0.0023
550.116	0.0018
550.406	0.0032
550.695	0.0025
550.985	0.0019
551.275	0.0016
551.564	0.0011
551.854	0.0022
552.143	0.0013
552.433	0.0013
552.722	0.0007
553.011	0.0016
553.3	0.0018
553.589	0.002
553.879	0.0007
554.167	0.0019
554.456	0.0013
554.745	0.003
555.034	0.0017
555.323	0.0004
555.611	0.0019
555.9	0.0027
556.188	0.0025
556.477	0.0026
556.765	0.0028
557.053	0.0024
557.342	0.0013
557.63	0.0008
557.918	0.0018
558.206	0.0031
558.494	0.0032
558.782	0.0019
559.069	0.0028
559.357	0.002
559.645	0.0026
559.932	0.0014
560.22	0.0029
560.507	0.0014
560.795	0.0017
561.082	0.001
561.37	0.0011
561.657	0.0013
561.944	0.0015
562.231	-0
562.518	0.0014
562.805	0.0003
563.092	0.0006
563.379	0.0003
563.665	0.001
563.952	0.0017
564.239	0.0029
564.525	0.0016
564.811	0.0026
565.098	0.0015
565.384	0.0024
565.67	0.0028
565.957	0.0031
566.243	0.0019
566.529	0.0018
566.815	0.0009
567.101	0.001
567.387	0.0011
567.672	0.0008
567.958	0.0019
568.244	0.0007
568.529	0.0008
568.815	0.0016
569.1	0.0006
569.386	0.0016
569.671	0.0018
569.956	0.0021
570.242	0.0018
570.527	0.0026
570.812	0.0023
571.097	0.002
571.382	0.0028
571.666	0.0034
571.951	0.002
572.236	0.003
572.521	0.0032
572.805	0.0027
573.09	0.0016
573.374	-0.0001
573.659	0.0019
573.943	0.0026
574.227	0.0022
574.511	0.0015
574.795	0.0023
575.079	0.0023
575.363	0.0013
575.647	0.0024
575.931	0.003
576.215	0.0004
576.499	0.0001
576.782	0.0017
577.066	0.0002
577.349	0.0015
577.633	0.0013
577.916	-0.0003
578.2	0.0021
578.483	0.0035
578.766	0.0028
579.049	0.0026
579.332	0.0025
579.615	0.0006
579.898	0.0014
580.181	0.0025
580.464	0.0017
580.746	0.0013
581.029	0.002
581.312	0.0008
581.594	-0.0002
581.877	0.0036
582.159	0.0033
582.441	0.0022
582.724	0.002
583.006	0.0037
583.288	0.0018
583.57	0.0024
583.852	0.0023
584.134	0.0011
584.416	0.0008
584.697	0.0016
584.979	0.0007
585.261	0.0007
585.542	0.0018
585.824	0.0015
586.105	0.0015
586.387	0.0015
586.668	0.001
586.949	0.0013
587.231	0.0007
587.512	0.001
587.793	0.0011
588.074	0.002
588.355	0.0016
588.636	0.0007
588.916	0.0019
589.197	0.003
589.478	0.0017
589.758	0.0016
590.039	0.0016
590.319	0.0017
590.6	0.0009
590.88	0.0009
591.16	-0.0003
591.441	0
591.721	0.0012
592.001	0.0005
592.281	0.0016
592.561	0.0012
592.841	-0.0005
593.12	0.0025
593.4	0.0018
593.68	0.0012
593.959	0.0018
594.239	0.0029
594.518	0.0031
594.798	0.001
595.077	0.0009
595.356	0.0011
595.636	0.0008
595.915	0.0007
596.194	0.0015
596.473	0.0015
