Data from 03 0.5 mM K2Cr2O7 0.2 mM BQDS 1 M H2SO4 5 min_Absorbance_0084.txt Node
Date: Thu Dec 09 22:46:44 EST 2021
User: kwabilab-user
Spectrometer: HDX00518
Trigger mode: 0
Integration Time (sec): 5.000000E-2
Scans to average: 50
Nonlinearity correction enabled: false
Boxcar width: 0
Storing dark spectrum: false
XAxis mode: Wavelengths
Number of Pixels in Spectrum: 2068
>>>>>Begin Spectral Data<<<<<
195.27	0.3708
195.642	0.3342
196.014	0.4046
196.386	0.5791
196.758	0.0289
197.129	0.0321
197.501	0.0694
197.872	0.1151
198.244	0.1425
198.615	0.125
198.986	0.1346
199.357	0.1264
199.728	0.1268
200.099	0.1474
200.47	0.1245
200.841	0.1358
201.212	0.1313
201.582	0.114
201.953	0.1151
202.323	0.1322
202.694	0.1461
203.064	0.1279
203.434	0.1526
203.804	0.1419
204.174	0.1253
204.544	0.1368
204.914	0.14
205.284	0.1338
205.653	0.128
206.023	0.1509
206.393	0.139
206.762	0.1301
207.131	0.1403
207.501	0.1365
207.87	0.1452
208.239	0.1213
208.608	0.1617
208.977	0.1366
209.346	0.1559
209.715	0.1575
210.083	0.1522
210.452	0.1475
210.82	0.1368
211.189	0.1608
211.557	0.1589
211.925	0.155
212.294	0.1686
212.662	0.1856
213.03	0.1705
213.398	0.1815
213.766	0.1935
214.133	0.1886
214.501	0.1817
214.869	0.187
215.236	0.1959
215.604	0.2129
215.971	0.2305
216.338	0.2443
216.705	0.2406
217.072	0.2821
217.439	0.2757
217.806	0.2963
218.173	0.3175
218.54	0.3564
218.907	0.3696
219.273	0.4062
219.64	0.4433
220.006	0.4766
220.373	0.4789
220.739	0.5329
221.105	0.5836
221.471	0.6166
221.837	0.6571
222.203	0.6767
222.569	0.7218
222.935	0.7663
223.3	0.794
223.666	0.8171
224.031	0.865
224.397	0.8931
224.762	0.9129
225.127	0.9445
225.493	0.969
225.858	1.0012
226.223	1.0059
226.588	1.0321
226.952	1.0443
227.317	1.0617
227.682	1.0538
228.046	1.0684
228.411	1.0867
228.775	1.0907
229.14	1.0761
229.504	1.086
229.868	1.0964
230.232	1.0866
230.596	1.0924
230.96	1.0989
231.324	1.0821
231.688	1.0678
232.052	1.0822
232.415	1.0716
232.779	1.0588
233.142	1.0591
233.505	1.052
233.869	1.0527
234.232	1.0402
234.595	1.0228
234.958	1.0164
235.321	1.0164
235.684	1.001
236.047	0.9929
236.409	0.9784
236.772	0.9762
237.134	0.972
237.497	0.9598
237.859	0.958
238.222	0.9445
238.584	0.9405
238.946	0.9293
239.308	0.9266
239.67	0.9136
240.032	0.9101
240.393	0.9
240.755	0.8924
241.117	0.8942
241.478	0.8868
241.84	0.879
242.201	0.8743
242.562	0.8662
242.924	0.8588
243.285	0.8559
243.646	0.8484
244.007	0.8464
244.368	0.8435
244.728	0.835
245.089	0.831
245.45	0.8292
245.81	0.8246
246.171	0.818
246.531	0.8194
246.891	0.8168
247.252	0.8162
247.612	0.811
247.972	0.808
248.332	0.8064
248.692	0.8027
249.051	0.8029
249.411	0.7978
249.771	0.7934
250.13	0.7934
250.49	0.7898
250.849	0.791
251.208	0.7897
251.568	0.7887
251.927	0.7838
252.286	0.7866
252.645	0.7846
253.004	0.7842
253.363	0.7817
253.721	0.7795
254.08	0.7803
254.439	0.7775
254.797	0.7779
255.155	0.7732
255.514	0.7772
255.872	0.7728
256.23	0.776
256.588	0.7736
256.946	0.7722
257.304	0.7681
257.662	0.7736
258.02	0.772
258.377	0.7715
258.735	0.7713
259.093	0.769
259.45	0.7675
259.807	0.7682
260.165	0.7657
260.522	0.7662
260.879	0.7627
261.236	0.7617
261.593	0.7612
261.95	0.7573
262.306	0.7602
262.663	0.7565
263.02	0.7562
263.376	0.7521
263.733	0.7532
264.089	0.7509
264.445	0.75
264.802	0.7488
265.158	0.7492
265.514	0.7459
265.87	0.7405
266.226	0.7405
266.581	0.7396
266.937	0.7363
267.293	0.733
267.648	0.7322
268.004	0.7265
268.359	0.726
268.714	0.7244
269.07	0.7219
269.425	0.7193
269.78	0.7182
270.135	0.7167
270.49	0.7134
270.844	0.7108
271.199	0.7063
271.554	0.703
271.908	0.7012
272.263	0.6974
272.617	0.6949
272.972	0.6941
273.326	0.6882
273.68	0.6836
274.034	0.6831
274.388	0.6771
274.742	0.6761
275.096	0.6733
275.45	0.6678
275.803	0.6627
276.157	0.66
276.51	0.6546
276.864	0.6503
277.217	0.6453
277.571	0.6444
277.924	0.6347
278.277	0.6351
278.63	0.6289
278.983	0.6246
279.336	0.6204
279.688	0.6149
280.041	0.6083
280.394	0.6059
280.746	0.5996
281.099	0.5968
281.451	0.5912
281.803	0.5848
282.156	0.5792
282.508	0.5757
282.86	0.5697
283.212	0.5635
283.564	0.5597
283.916	0.5539
284.267	0.5491
284.619	0.5423
284.971	0.5379
285.322	0.5314
285.673	0.5264
286.025	0.521
286.376	0.5142
286.727	0.5105
287.078	0.5023
287.429	0.4979
287.78	0.4916
288.131	0.4858
288.482	0.4811
288.833	0.4723
289.183	0.4675
289.534	0.463
289.884	0.4568
290.235	0.4488
290.585	0.4452
290.935	0.4378
291.285	0.4321
291.635	0.4271
291.985	0.4204
292.335	0.4147
292.685	0.4086
293.035	0.4026
293.384	0.3974
293.734	0.3913
294.083	0.385
294.433	0.3793
294.782	0.3734
295.131	0.3674
295.48	0.3616
295.829	0.3569
296.179	0.3514
296.527	0.3452
296.876	0.3403
297.225	0.3347
297.574	0.3286
297.922	0.3236
298.271	0.3187
298.619	0.3122
298.968	0.3087
299.316	0.3032
299.664	0.2984
300.012	0.2926
300.36	0.2887
300.708	0.285
301.056	0.2801
301.404	0.2748
301.752	0.2717
302.099	0.2678
302.447	0.2635
302.794	0.259
303.142	0.2556
303.489	0.2515
303.836	0.2478
304.183	0.2448
304.531	0.241
304.878	0.2381
305.224	0.2346
305.571	0.2317
305.918	0.2289
306.265	0.226
306.611	0.2232
306.958	0.2211
307.304	0.2185
307.651	0.2161
307.997	0.2143
308.343	0.2128
308.689	0.2102
309.035	0.2086
309.381	0.2072
309.727	0.2056
310.073	0.2036
310.419	0.2028
310.764	0.2013
311.11	0.2003
311.455	0.1991
311.801	0.1985
312.146	0.1976
312.491	0.1965
312.837	0.1962
313.182	0.1953
313.527	0.1951
313.872	0.1953
314.216	0.1948
314.561	0.1943
314.906	0.1944
315.251	0.1939
315.595	0.1946
315.94	0.1952
316.284	0.1954
316.628	0.1953
316.972	0.1964
317.317	0.1967
317.661	0.1976
318.005	0.1976
318.348	0.1991
318.692	0.1994
319.036	0.2007
319.38	0.2009
319.723	0.2031
320.067	0.2039
320.41	0.2054
320.754	0.206
321.097	0.2075
321.44	0.2091
321.783	0.211
322.126	0.212
322.469	0.2132
322.812	0.2143
323.155	0.2167
323.498	0.2184
323.84	0.2205
324.183	0.2223
324.525	0.224
324.868	0.226
325.21	0.2282
325.552	0.2299
325.894	0.2316
326.236	0.2333
326.578	0.236
326.92	0.2375
327.262	0.2401
327.604	0.2416
327.946	0.2441
328.287	0.2455
328.629	0.2477
328.97	0.2507
329.312	0.2532
329.653	0.2554
329.994	0.2572
330.335	0.2593
330.676	0.2619
331.017	0.2645
331.358	0.2667
331.699	0.2694
332.04	0.2714
332.38	0.2741
332.721	0.2761
333.061	0.2777
333.402	0.2804
333.742	0.2825
334.083	0.285
334.423	0.2867
334.763	0.2882
335.103	0.2911
335.443	0.2926
335.783	0.2944
336.123	0.2964
336.462	0.2977
336.802	0.3
337.141	0.3022
337.481	0.3038
337.82	0.3055
338.16	0.3073
338.499	0.3093
338.838	0.3114
339.177	0.3138
339.516	0.3149
339.855	0.3171
340.194	0.3191
340.533	0.3207
340.872	0.3223
341.21	0.3243
341.549	0.3249
341.887	0.326
342.226	0.3269
342.564	0.3287
342.902	0.3291
343.24	0.3295
343.578	0.3307
343.916	0.3309
344.254	0.332
344.592	0.3316
344.93	0.3339
345.268	0.3336
345.605	0.3341
345.943	0.3347
346.28	0.335
346.618	0.3353
346.955	0.3356
347.292	0.3363
347.629	0.336
347.966	0.3377
348.303	0.3377
348.64	0.3374
348.977	0.338
349.314	0.3376
349.65	0.3385
349.987	0.3382
350.324	0.3376
350.66	0.337
350.996	0.3366
351.333	0.3372
351.669	0.3357
352.005	0.3349
352.341	0.3338
352.677	0.3328
353.013	0.3315
353.349	0.3307
353.685	0.3293
354.02	0.3274
354.356	0.3263
354.691	0.3258
355.027	0.3237
355.362	0.3233
355.697	0.3213
356.033	0.3201
356.368	0.319
356.703	0.3173
357.038	0.3164
357.373	0.3149
357.707	0.3141
358.042	0.3135
358.377	0.3112
358.711	0.3102
359.046	0.3089
359.38	0.3084
359.715	0.3065
360.049	0.3048
360.383	0.3014
360.717	0.3019
361.051	0.2993
361.385	0.2964
361.719	0.2952
362.053	0.2924
362.387	0.2895
362.72	0.2879
363.054	0.2859
363.387	0.2823
363.721	0.2795
364.054	0.2786
364.387	0.2757
364.721	0.2738
365.054	0.2704
365.387	0.2675
365.72	0.2646
366.053	0.2634
366.385	0.2612
366.718	0.259
367.051	0.2575
367.383	0.2548
367.716	0.2528
368.048	0.2516
368.381	0.2493
368.713	0.2473
369.045	0.2448
369.377	0.2436
369.709	0.2411
370.041	0.2402
370.373	0.2377
370.705	0.2354
371.037	0.2331
371.368	0.2313
371.7	0.2279
372.031	0.2254
372.363	0.2233
372.694	0.221
373.025	0.2179
373.356	0.2156
373.688	0.2123
374.019	0.2097
374.35	0.2068
374.68	0.2042
375.011	0.2017
375.342	0.1987
375.673	0.196
376.003	0.1941
376.334	0.1912
376.664	0.1885
376.995	0.1863
377.325	0.1836
377.655	0.1825
377.985	0.1796
378.315	0.1766
378.645	0.1758
378.975	0.1729
379.305	0.1718
379.635	0.17
379.964	0.1684
380.294	0.1671
380.623	0.1646
380.953	0.1623
381.282	0.1602
381.611	0.1581
381.941	0.1573
382.27	0.1551
382.599	0.1534
382.928	0.1507
383.257	0.1498
383.585	0.1472
383.914	0.1453
384.243	0.143
384.571	0.1404
384.9	0.138
385.228	0.1356
385.557	0.1334
385.885	0.1318
386.213	0.1288
386.541	0.127
386.869	0.1245
387.197	0.1226
387.525	0.12
387.853	0.1184
388.181	0.1157
388.508	0.1141
388.836	0.1116
389.164	0.11
389.491	0.1092
389.818	0.1073
390.146	0.1053
390.473	0.103
390.8	0.1018
391.127	0.0999
391.454	0.0989
391.781	0.0975
392.108	0.0958
392.435	0.0946
392.761	0.0933
393.088	0.0922
393.415	0.0911
393.741	0.0902
394.067	0.0889
394.394	0.088
394.72	0.0863
395.046	0.0853
395.372	0.0844
395.698	0.0832
396.024	0.0818
396.35	0.0803
396.676	0.0788
397.001	0.0782
397.327	0.0766
397.653	0.0762
397.978	0.0737
398.303	0.0729
398.629	0.0722
398.954	0.0714
399.279	0.0705
399.604	0.0685
399.929	0.0676
400.254	0.0669
400.579	0.0664
400.904	0.0654
401.229	0.0643
401.553	0.0637
401.878	0.0632
402.202	0.0624
402.527	0.0611
402.851	0.0601
403.175	0.0601
403.5	0.0592
403.824	0.0583
404.148	0.0583
404.472	0.058
404.796	0.0576
405.119	0.0569
405.443	0.0568
405.767	0.0561
406.09	0.0563
406.414	0.0557
406.737	0.0551
407.061	0.0552
407.384	0.0555
407.707	0.0541
408.03	0.0541
408.353	0.0545
408.676	0.0541
408.999	0.0538
409.322	0.0537
409.645	0.0534
409.968	0.053
410.29	0.0528
410.613	0.0527
410.935	0.0524
411.258	0.0527
411.58	0.0522
411.902	0.0524
412.224	0.0525
412.546	0.0519
412.868	0.0522
413.19	0.0527
413.512	0.0518
413.834	0.0523
414.156	0.0518
414.477	0.0518
414.799	0.0514
415.121	0.0525
415.442	0.0516
415.763	0.0522
416.085	0.0534
416.406	0.0526
416.727	0.0518
417.048	0.0524
417.369	0.0522
417.69	0.0527
418.011	0.0528
418.331	0.0531
418.652	0.0532
418.973	0.0525
419.293	0.0527
419.614	0.0535
419.934	0.0536
420.254	0.0534
420.574	0.0532
420.895	0.0529
421.215	0.0532
421.535	0.0531
421.855	0.0528
422.174	0.0533
422.494	0.0534
422.814	0.054
423.134	0.0537
423.453	0.0541
423.773	0.0545
424.092	0.0545
424.411	0.0536
424.731	0.0544
425.05	0.0542
425.369	0.0543
425.688	0.0549
426.007	0.0551
426.326	0.0552
426.644	0.0551
426.963	0.0557
427.282	0.055
427.6	0.055
427.919	0.0551
428.237	0.0558
428.556	0.0556
428.874	0.0556
429.192	0.0565
429.51	0.0552
429.828	0.0562
430.146	0.0554
430.464	0.056
430.782	0.0566
431.1	0.056
431.418	0.0564
431.735	0.0562
432.053	0.057
432.37	0.0567
432.688	0.0563
433.005	0.0569
433.322	0.0571
433.639	0.0565
433.957	0.0575
434.274	0.0576
434.591	0.0575
434.907	0.0577
435.224	0.0579
435.541	0.058
435.858	0.0586
436.174	0.058
436.491	0.0577
436.807	0.0571
437.124	0.0579
437.44	0.0571
437.756	0.0573
438.072	0.0571
438.388	0.0571
438.704	0.0574
439.02	0.0575
439.336	0.0572
439.652	0.0577
439.968	0.0576
440.283	0.0584
440.599	0.0584
440.914	0.0569
441.23	0.057
441.545	0.0568
441.86	0.0569
442.175	0.0572
442.491	0.057
442.806	0.0571
443.121	0.0581
443.435	0.0568
443.75	0.0574
444.065	0.0574
444.38	0.0575
444.694	0.0571
445.009	0.0572
445.323	0.0574
445.638	0.057
445.952	0.0573
446.266	0.0565
446.58	0.0563
446.894	0.0567
447.208	0.0569
447.522	0.0569
447.836	0.0564
448.15	0.0561
448.464	0.0568
448.777	0.0559
449.091	0.0559
449.404	0.0555
449.718	0.0561
450.031	0.0564
450.345	0.0557
450.658	0.0562
450.971	0.0553
451.284	0.0561
451.597	0.0557
451.91	0.0553
452.223	0.055
452.535	0.0551
452.848	0.0551
453.161	0.0542
453.473	0.0555
453.786	0.0556
454.098	0.0544
454.411	0.0553
454.723	0.0547
455.035	0.0543
455.347	0.0539
455.659	0.0527
455.971	0.0532
456.283	0.0535
456.595	0.053
456.907	0.0529
457.218	0.0531
457.53	0.0533
457.841	0.0522
458.153	0.053
458.464	0.0523
458.776	0.0532
459.087	0.052
459.398	0.0516
459.709	0.0515
460.02	0.0514
460.331	0.0506
460.642	0.0503
460.953	0.0511
461.263	0.0502
461.574	0.0499
461.885	0.0501
462.195	0.0496
462.506	0.0499
462.816	0.0497
463.126	0.0489
463.437	0.0487
463.747	0.0491
464.057	0.0488
464.367	0.0485
464.677	0.0481
464.987	0.0478
465.296	0.0474
465.606	0.0466
465.916	0.0467
466.225	0.0466
466.535	0.0456
466.844	0.0461
467.154	0.0459
467.463	0.0453
467.772	0.0443
468.081	0.0449
468.39	0.045
468.699	0.0443
469.008	0.0443
469.317	0.0444
469.626	0.0437
469.935	0.0442
470.243	0.0434
470.552	0.043
470.86	0.0426
471.169	0.0425
471.477	0.0428
471.785	0.0421
472.093	0.0423
472.402	0.0417
472.71	0.0418
473.018	0.0414
473.326	0.0408
473.633	0.041
473.941	0.0397
474.249	0.0403
474.556	0.0399
474.864	0.0387
475.171	0.0388
475.479	0.0383
475.786	0.0388
476.094	0.0385
476.401	0.0387
476.708	0.0374
477.015	0.0378
477.322	0.0376
477.629	0.0374
477.936	0.0378
478.242	0.0368
478.549	0.0363
478.856	0.0366
479.162	0.0355
479.469	0.0366
479.775	0.0354
480.081	0.0355
480.388	0.0346
480.694	0.0353
481	0.0342
481.306	0.035
481.612	0.0339
481.918	0.034
482.224	0.0334
482.53	0.0329
482.835	0.0327
483.141	0.0325
483.446	0.0327
483.752	0.0314
484.057	0.0316
484.363	0.0312
484.668	0.0302
484.973	0.0296
485.278	0.0303
485.583	0.0289
485.888	0.0279
486.193	0.0281
486.498	0.0296
486.803	0.0301
487.107	0.028
487.412	0.0274
487.717	0.0274
488.021	0.0276
488.325	0.0268
488.63	0.0278
488.934	0.0269
489.238	0.0263
489.542	0.0262
489.846	0.0261
490.15	0.0253
490.454	0.0252
490.758	0.0252
491.062	0.0254
491.366	0.0249
491.669	0.0247
491.973	0.0245
492.276	0.0244
492.58	0.0238
492.883	0.023
493.186	0.0227
493.489	0.0232
493.792	0.0221
494.096	0.022
494.399	0.022
494.701	0.0226
495.004	0.0222
495.307	0.0223
495.61	0.0222
495.912	0.0207
496.215	0.0207
496.517	0.0205
496.82	0.0211
497.122	0.0201
497.424	0.0202
497.727	0.0193
498.029	0.0196
498.331	0.0191
498.633	0.0195
498.935	0.0184
499.237	0.0184
499.538	0.0189
499.84	0.019
500.142	0.0185
500.443	0.0182
500.745	0.0177
501.046	0.018
501.348	0.0171
501.649	0.0184
501.95	0.0177
502.251	0.0173
502.552	0.0162
502.853	0.0172
503.154	0.0169
503.455	0.0172
503.756	0.0159
504.057	0.0153
504.357	0.0161
504.658	0.0157
504.958	0.0159
505.259	0.016
505.559	0.0145
505.859	0.0144
506.16	0.0154
506.46	0.0138
506.76	0.0135
507.06	0.0143
507.36	0.0144
507.66	0.0147
507.96	0.0125
508.259	0.0122
508.559	0.0135
508.859	0.013
509.158	0.0138
509.457	0.0132
509.757	0.0112
510.056	0.0123
510.355	0.0112
510.655	0.0115
510.954	0.0106
511.253	0.0114
511.552	0.0109
511.851	0.0108
512.149	0.0104
512.448	0.0115
512.747	0.0101
513.045	0.0107
513.344	0.0104
513.642	0.0112
513.941	0.0099
514.239	0.0107
514.537	0.0104
514.836	0.0108
515.134	0.0098
515.432	0.0107
515.73	0.0104
516.028	0.0097
516.326	0.0092
516.623	0.0099
516.921	0.0101
517.219	0.0113
517.516	0.0103
517.814	0.0096
518.111	0.0087
518.409	0.0078
518.706	0.009
519.003	0.0073
519.3	0.0084
519.597	0.0082
519.894	0.0073
520.191	0.0067
520.488	0.0078
520.785	0.0066
521.082	0.007
521.378	0.0069
521.675	0.0067
521.971	0.0065
522.268	0.0073
522.564	0.0063
522.861	0.0074
523.157	0.0078
523.453	0.0071
523.749	0.0067
524.045	0.0053
524.341	0.0061
524.637	0.0057
524.933	0.006
525.229	0.0063
525.524	0.0063
525.82	0.0047
526.115	0.0055
526.411	0.006
526.706	0.0051
527.002	0.004
527.297	0.0043
527.592	0.0054
527.887	0.0045
528.182	0.0045
528.477	0.0041
528.772	0.0033
529.067	0.0037
529.362	0.0044
529.657	0.0042
529.951	0.0036
530.246	0.0052
530.54	0.0044
530.835	0.0041
531.129	0.0062
531.423	0.004
531.718	0.0043
532.012	0.0044
532.306	0.005
532.6	0.0048
532.894	0.0037
533.188	0.0031
533.482	0.0044
533.775	0.0033
534.069	0.0031
534.363	0.0029
534.656	0.0039
534.95	0.0035
535.243	0.0025
535.536	0.0031
535.83	0.0028
536.123	0.0032
536.416	0.0041
536.709	0.0028
537.002	0.0025
537.295	0.003
537.588	0.0029
537.881	0.004
538.173	0.0037
538.466	0.0024
538.759	0.0022
539.051	0.0022
539.344	0.0032
539.636	0.0029
539.928	0.0033
540.22	0.0027
540.513	0.0028
540.805	0.0024
541.097	0.0016
541.389	0.0024
541.681	0.0031
541.972	0.0013
542.264	0.0024
542.556	0.0026
542.847	0.0006
543.139	0.0022
543.431	0.0019
543.722	0.0016
544.013	0.001
544.305	0.0023
544.596	0.0015
544.887	0.0011
545.178	0.0018
545.469	0.0013
545.76	0.0026
546.051	0.0025
546.342	0.0011
546.632	0.0023
546.923	0.0019
547.214	0.0012
547.504	0.0018
547.795	0.0014
548.085	0.0021
548.375	0.002
548.666	0.0018
548.956	0.0032
549.246	0.0021
549.536	0.003
549.826	0.002
550.116	0.0019
550.406	0.0015
550.695	0.0022
550.985	0.0016
551.275	0.0015
551.564	0.0012
551.854	0.0019
552.143	0.0023
552.433	0.0014
552.722	0.0004
553.011	0.001
553.3	0.0023
553.589	0.0015
553.879	0.0013
554.167	0.0019
554.456	0.0013
554.745	0.0026
555.034	0.0013
555.323	0.0008
555.611	0.0017
555.9	0.0027
556.188	0.0012
556.477	0.0026
556.765	0.0024
557.053	0.0015
557.342	0.0026
557.63	0.0014
557.918	0.0028
558.206	0.002
558.494	0.0028
558.782	0.0025
559.069	0.0023
559.357	0.0023
559.645	0.0027
559.932	0.0012
560.22	0.0024
560.507	0.0016
560.795	0.0023
561.082	0.0009
561.37	0.0016
561.657	0.0017
561.944	0.0009
562.231	0.0005
562.518	0.0013
562.805	0.0003
563.092	0.0004
563.379	-0.0002
563.665	0.0007
563.952	0.0015
564.239	0.0023
564.525	0.0018
564.811	0.0018
565.098	0.0013
565.384	0.0023
565.67	0.0029
565.957	0.0031
566.243	0.0024
566.529	0.0026
566.815	0.0015
567.101	0.0011
567.387	0.0007
567.672	-0.0004
567.958	0.0018
568.244	0.0015
568.529	0.0008
568.815	0.0014
569.1	0.0009
569.386	0.0015
569.671	0.0028
569.956	0.0012
570.242	0.0022
570.527	0.0024
570.812	0.0023
571.097	0.0012
571.382	0.0023
571.666	0.0029
571.951	0.0027
572.236	0.003
572.521	0.0035
572.805	0.003
573.09	0.0015
573.374	-0
573.659	0.0018
573.943	0.0024
574.227	0.0015
574.511	0.001
574.795	0.002
575.079	0.0019
575.363	0.0015
575.647	0.0026
575.931	0.0018
576.215	0.0006
576.499	0.0008
576.782	0.0015
577.066	0.0003
577.349	0.0016
577.633	0.0003
577.916	0.0004
578.2	0.0015
578.483	0.0028
578.766	0.0021
579.049	0.0022
579.332	0.0023
579.615	0.0003
579.898	0.0007
580.181	0.0026
580.464	0.0012
580.746	0.0012
581.029	0.0025
581.312	0.0001
581.594	-0.0001
581.877	0.0029
582.159	0.0026
582.441	0.0021
582.724	0.0028
583.006	0.0025
583.288	0.0014
583.57	0.0032
583.852	0.0011
584.134	0.0009
584.416	0.0008
584.697	0.0012
584.979	0.0006
585.261	0.0009
585.542	0.0025
585.824	0.001
586.105	0.0009
586.387	0.0016
586.668	0.0012
586.949	0.0003
587.231	0.0006
587.512	0.0008
587.793	0.0015
588.074	0.0017
588.355	0.001
588.636	0.0013
588.916	0.0015
589.197	0.0026
589.478	0.0013
589.758	0.0012
590.039	0.0004
590.319	0.0019
590.6	0.0008
590.88	0.0006
591.16	0.0007
591.441	0.0001
591.721	0.0007
592.001	0.0009
592.281	0.0009
592.561	0.0011
592.841	-0.0005
593.12	0.0016
593.4	0.0013
593.68	0.0013
593.959	0.0023
594.239	0.0024
594.518	0.0033
594.798	0.001
595.077	0.0011
595.356	0.0016
595.636	0.0007
595.915	0.0016
596.194	0.0016
596.473	0.0014
596.752	0.001
