Data from 03 0.5 mM K2Cr2O7 0.3 mM BQDS 1 M H2SO4 5 min_Absorbance_0009.txt Node
Date: Mon Dec 13 18:24:45 EST 2021
User: kwabilab-user
Spectrometer: HDX00518
Trigger mode: 0
Integration Time (sec): 5.000000E-2
Scans to average: 50
Nonlinearity correction enabled: false
Boxcar width: 0
Storing dark spectrum: false
XAxis mode: Wavelengths
Number of Pixels in Spectrum: 2068
>>>>>Begin Spectral Data<<<<<
195.27	0.0665
195.642	0.243
196.014	0.2416
196.386	0.0912
196.758	0.0067
197.129	-0.0069
197.501	0.0263
197.872	0.0243
198.244	0.057
198.615	0.0621
198.986	0.0514
199.357	0.0734
199.728	0.0577
200.099	0.0686
200.47	0.0399
200.841	0.0416
201.212	0.0645
201.582	0.0824
201.953	0.0577
202.323	0.0691
202.694	0.0578
203.064	0.0485
203.434	0.0786
203.804	0.034
204.174	0.0707
204.544	0.0814
204.914	0.0705
205.284	0.0482
205.653	0.0582
206.023	0.0539
206.393	0.0348
206.762	0.0771
207.131	0.0638
207.501	0.0376
207.87	0.0764
208.239	0.0669
208.608	0.0479
208.977	0.064
209.346	0.065
209.715	0.0541
210.083	0.0342
210.452	0.0589
210.82	0.0497
211.189	0.0518
211.557	0.0727
211.925	0.0309
212.294	0.0586
212.662	0.0618
213.03	0.0408
213.398	0.0771
213.766	0.0717
214.133	0.0599
214.501	0.1005
214.869	0.066
215.236	0.0738
215.604	0.0792
215.971	0.0696
216.338	0.0956
216.705	0.0751
217.072	0.1012
217.439	0.0904
217.806	0.0942
218.173	0.1018
218.54	0.0792
218.907	0.118
219.273	0.1249
219.64	0.0941
220.006	0.1208
220.373	0.1219
220.739	0.1453
221.105	0.1506
221.471	0.1825
221.837	0.186
222.203	0.1975
222.569	0.2157
222.935	0.2399
223.3	0.2316
223.666	0.284
224.031	0.3065
224.397	0.3099
224.762	0.3402
225.127	0.3799
225.493	0.406
225.858	0.4364
226.223	0.4471
226.588	0.4553
226.952	0.4924
227.317	0.5186
227.682	0.5342
228.046	0.5381
228.411	0.5508
228.775	0.6006
229.14	0.5909
229.504	0.614
229.868	0.6241
230.232	0.6373
230.596	0.6708
230.96	0.682
231.324	0.6689
231.688	0.6898
232.052	0.7167
232.415	0.7061
232.779	0.7313
233.142	0.7422
233.505	0.7367
233.869	0.7622
234.232	0.7638
234.595	0.739
234.958	0.7726
235.321	0.7767
235.684	0.7711
236.047	0.7719
236.409	0.7602
236.772	0.7757
237.134	0.7744
237.497	0.7844
237.859	0.7807
238.222	0.7789
238.584	0.7699
238.946	0.7816
239.308	0.7944
239.67	0.7753
240.032	0.7694
240.393	0.7895
240.755	0.7815
241.117	0.7754
241.478	0.7772
241.84	0.7855
242.201	0.7696
242.562	0.7733
242.924	0.7676
243.285	0.7682
243.646	0.7831
244.007	0.7581
244.368	0.7749
244.728	0.7622
245.089	0.7764
245.45	0.7733
245.81	0.7732
246.171	0.7609
246.531	0.7791
246.891	0.7594
247.252	0.765
247.612	0.7694
247.972	0.7688
248.332	0.7737
248.692	0.7564
249.051	0.7666
249.411	0.776
249.771	0.7562
250.13	0.7613
250.49	0.7629
250.849	0.7533
251.208	0.7619
251.568	0.7711
251.927	0.7659
252.286	0.7745
252.645	0.7605
253.004	0.7693
253.363	0.7661
253.721	0.7663
254.08	0.7624
254.439	0.7625
254.797	0.7567
255.155	0.7615
255.514	0.761
255.872	0.7784
256.23	0.7548
256.588	0.7715
256.946	0.7603
257.304	0.7647
257.662	0.7629
258.02	0.7707
258.377	0.7619
258.735	0.7634
259.093	0.7665
259.45	0.7704
259.807	0.7654
260.165	0.7612
260.522	0.7665
260.879	0.7658
261.236	0.7625
261.593	0.7649
261.95	0.7546
262.306	0.7529
262.663	0.7561
263.02	0.7555
263.376	0.7539
263.733	0.7542
264.089	0.7492
264.445	0.7477
264.802	0.7476
265.158	0.7455
265.514	0.7471
265.87	0.7426
266.226	0.7412
266.581	0.7417
266.937	0.7448
267.293	0.7397
267.648	0.7372
268.004	0.7317
268.359	0.7259
268.714	0.7261
269.07	0.726
269.425	0.7219
269.78	0.7146
270.135	0.7188
270.49	0.7161
270.844	0.7153
271.199	0.7103
271.554	0.7129
271.908	0.7043
272.263	0.7101
272.617	0.7039
272.972	0.6959
273.326	0.6927
273.68	0.6869
274.034	0.6828
274.388	0.6792
274.742	0.6834
275.096	0.6797
275.45	0.6762
275.803	0.6716
276.157	0.6707
276.51	0.6617
276.864	0.6623
277.217	0.6605
277.571	0.6564
277.924	0.6524
278.277	0.6447
278.63	0.6406
278.983	0.6381
279.336	0.6307
279.688	0.6306
280.041	0.6232
280.394	0.623
280.746	0.615
281.099	0.6093
281.451	0.6075
281.803	0.5986
282.156	0.5984
282.508	0.5901
282.86	0.585
283.212	0.5777
283.564	0.5749
283.916	0.5729
284.267	0.5614
284.619	0.5564
284.971	0.5562
285.322	0.5506
285.673	0.5447
286.025	0.5403
286.376	0.5359
286.727	0.5263
287.078	0.525
287.429	0.5175
287.78	0.5123
288.131	0.5077
288.482	0.5008
288.833	0.4929
289.183	0.4882
289.534	0.4827
289.884	0.4783
290.235	0.4718
290.585	0.4659
290.935	0.4622
291.285	0.454
291.635	0.4469
291.985	0.4433
292.335	0.4378
292.685	0.4348
293.035	0.4281
293.384	0.4231
293.734	0.4175
294.083	0.4088
294.433	0.4032
294.782	0.3989
295.131	0.3932
295.48	0.3869
295.829	0.3831
296.179	0.3781
296.527	0.3739
296.876	0.3672
297.225	0.3622
297.574	0.3556
297.922	0.3521
298.271	0.3472
298.619	0.3417
298.968	0.3372
299.316	0.3321
299.664	0.3285
300.012	0.3236
300.36	0.3183
300.708	0.3161
301.056	0.3103
301.404	0.3059
301.752	0.3032
302.099	0.298
302.447	0.2955
302.794	0.2907
303.142	0.2878
303.489	0.283
303.836	0.2811
304.183	0.2776
304.531	0.2746
304.878	0.2723
305.224	0.2696
305.571	0.2657
305.918	0.2624
306.265	0.2607
306.611	0.2577
306.958	0.2566
307.304	0.2529
307.651	0.2519
307.997	0.2491
308.343	0.2485
308.689	0.2461
309.035	0.2444
309.381	0.2422
309.727	0.2413
310.073	0.2399
310.419	0.2387
310.764	0.2367
311.11	0.2356
311.455	0.2352
311.801	0.234
312.146	0.2338
312.491	0.2331
312.837	0.2308
313.182	0.2313
313.527	0.231
313.872	0.2309
314.216	0.2303
314.561	0.2298
314.906	0.2288
315.251	0.229
315.595	0.23
315.94	0.2302
316.284	0.2302
316.628	0.2307
316.972	0.2314
317.317	0.2315
317.661	0.2309
318.005	0.2319
318.348	0.2332
318.692	0.2339
319.036	0.2342
319.38	0.2351
319.723	0.2356
320.067	0.2373
320.41	0.2371
320.754	0.2385
321.097	0.2399
321.44	0.2414
321.783	0.2425
322.126	0.2446
322.469	0.2451
322.812	0.2458
323.155	0.2481
323.498	0.2492
323.84	0.2512
324.183	0.2533
324.525	0.2549
324.868	0.2562
325.21	0.2564
325.552	0.2591
325.894	0.2598
326.236	0.2625
326.578	0.2633
326.92	0.2657
327.262	0.2678
327.604	0.2686
327.946	0.2703
328.287	0.2731
328.629	0.2751
328.97	0.2767
329.312	0.2785
329.653	0.2797
329.994	0.2817
330.335	0.284
330.676	0.2871
331.017	0.2882
331.358	0.2911
331.699	0.2927
332.04	0.2948
332.38	0.2964
332.721	0.2974
333.061	0.3006
333.402	0.3026
333.742	0.3046
334.083	0.3067
334.423	0.3074
334.763	0.3096
335.103	0.3106
335.443	0.3124
335.783	0.3146
336.123	0.3162
336.462	0.3182
336.802	0.3199
337.141	0.3211
337.481	0.3222
337.82	0.324
338.16	0.3248
338.499	0.328
338.838	0.3283
339.177	0.3312
339.516	0.3323
339.855	0.334
340.194	0.3349
340.533	0.3364
340.872	0.3369
341.21	0.3387
341.549	0.3399
341.887	0.3419
342.226	0.3424
342.564	0.3435
342.902	0.3444
343.24	0.3447
343.578	0.3455
343.916	0.3461
344.254	0.3457
344.592	0.3461
344.93	0.3473
345.268	0.3472
345.605	0.3471
345.943	0.3477
346.28	0.3478
346.618	0.3499
346.955	0.3489
347.292	0.3489
347.629	0.3496
347.966	0.3497
348.303	0.3504
348.64	0.3506
348.977	0.3498
349.314	0.3512
349.65	0.3503
349.987	0.3506
350.324	0.3517
350.66	0.3497
350.996	0.3489
351.333	0.3491
351.669	0.3479
352.005	0.3471
352.341	0.3461
352.677	0.345
353.013	0.3435
353.349	0.3437
353.685	0.3414
354.02	0.3399
354.356	0.3388
354.691	0.3372
355.027	0.3358
355.362	0.3352
355.697	0.334
356.033	0.333
356.368	0.3316
356.703	0.3302
357.038	0.3295
357.373	0.327
357.707	0.3269
358.042	0.3245
358.377	0.3248
358.711	0.3229
359.046	0.3214
359.38	0.3206
359.715	0.3188
360.049	0.3173
360.383	0.3165
360.717	0.314
361.051	0.3128
361.385	0.3105
361.719	0.3072
362.053	0.3058
362.387	0.3032
362.72	0.3016
363.054	0.2987
363.387	0.297
363.721	0.2945
364.054	0.2913
364.387	0.2893
364.721	0.2878
365.054	0.2843
365.387	0.2824
365.72	0.2799
366.053	0.2784
366.385	0.2761
366.718	0.2736
367.051	0.2725
367.383	0.27
367.716	0.2684
368.048	0.267
368.381	0.265
368.713	0.263
369.045	0.2617
369.377	0.2585
369.709	0.2571
370.041	0.2556
370.373	0.2532
370.705	0.2517
371.037	0.2492
371.368	0.2471
371.7	0.2464
372.031	0.2423
372.363	0.2404
372.694	0.2378
373.025	0.2345
373.356	0.2318
373.688	0.2293
374.019	0.2261
374.35	0.2243
374.68	0.2215
375.011	0.2186
375.342	0.2156
375.673	0.2134
376.003	0.2104
376.334	0.2088
376.664	0.206
376.995	0.2037
377.325	0.2008
377.655	0.1997
377.985	0.1974
378.315	0.1951
378.645	0.1939
378.975	0.192
379.305	0.1898
379.635	0.1889
379.964	0.187
380.294	0.1849
380.623	0.1832
380.953	0.1811
381.282	0.179
381.611	0.1768
381.941	0.1761
382.27	0.1731
382.599	0.1714
382.928	0.1695
383.257	0.1679
383.585	0.1647
383.914	0.1639
384.243	0.161
384.571	0.1585
384.9	0.1558
385.228	0.154
385.557	0.1517
385.885	0.1489
386.213	0.1471
386.541	0.1459
386.869	0.1432
387.197	0.14
387.525	0.1383
387.853	0.1359
388.181	0.1346
388.508	0.1317
388.836	0.13
389.164	0.1282
389.491	0.1267
389.818	0.1247
390.146	0.1233
390.473	0.1222
390.8	0.1201
391.127	0.1178
391.454	0.1164
391.781	0.1148
392.108	0.1138
392.435	0.1122
392.761	0.1108
393.088	0.109
393.415	0.1088
393.741	0.1076
394.067	0.1056
394.394	0.1052
394.72	0.1037
395.046	0.1021
395.372	0.1009
395.698	0.0997
396.024	0.0979
396.35	0.0968
396.676	0.0956
397.001	0.0946
397.327	0.0929
397.653	0.0918
397.978	0.0898
398.303	0.0888
398.629	0.0875
398.954	0.0856
399.279	0.0849
399.604	0.0841
399.929	0.0835
400.254	0.0821
400.579	0.0811
400.904	0.0805
401.229	0.079
401.553	0.0784
401.878	0.0765
402.202	0.0765
402.527	0.0758
402.851	0.0752
403.175	0.074
403.5	0.0734
403.824	0.0728
404.148	0.0717
404.472	0.0714
404.796	0.0706
405.119	0.0701
405.443	0.0694
405.767	0.0687
406.09	0.0682
406.414	0.0674
406.737	0.0672
407.061	0.0669
407.384	0.0668
407.707	0.0666
408.03	0.0655
408.353	0.066
408.676	0.0652
408.999	0.0646
409.322	0.0649
409.645	0.0638
409.968	0.0639
410.29	0.0635
410.613	0.0638
410.935	0.063
411.258	0.063
411.58	0.0625
411.902	0.0624
412.224	0.0618
412.546	0.0615
412.868	0.0611
413.19	0.0613
413.512	0.0615
413.834	0.0601
414.156	0.0606
414.477	0.061
414.799	0.0607
415.121	0.0609
415.442	0.0604
415.763	0.0602
416.085	0.0593
416.406	0.0603
416.727	0.0596
417.048	0.0593
417.369	0.0594
417.69	0.0586
418.011	0.0585
418.331	0.059
418.652	0.0592
418.973	0.0586
419.293	0.0593
419.614	0.0594
419.934	0.0593
420.254	0.0587
420.574	0.0593
420.895	0.0585
421.215	0.0585
421.535	0.0588
421.855	0.0582
422.174	0.0583
422.494	0.0581
422.814	0.0584
423.134	0.0588
423.453	0.0582
423.773	0.0585
424.092	0.0586
424.411	0.0584
424.731	0.0589
425.05	0.0578
425.369	0.0585
425.688	0.0585
426.007	0.0576
426.326	0.0578
426.644	0.0585
426.963	0.0585
427.282	0.0579
427.6	0.0582
427.919	0.0579
428.237	0.0583
428.556	0.0578
428.874	0.0585
429.192	0.059
429.51	0.0589
429.828	0.0578
430.146	0.0582
430.464	0.0577
430.782	0.0581
431.1	0.0579
431.418	0.0577
431.735	0.0578
432.053	0.0581
432.37	0.0579
432.688	0.0578
433.005	0.0579
433.322	0.0581
433.639	0.0578
433.957	0.0578
434.274	0.0576
434.591	0.0579
434.907	0.0572
435.224	0.0578
435.541	0.0575
435.858	0.0576
436.174	0.0573
436.491	0.0571
436.807	0.0567
437.124	0.0569
437.44	0.0573
437.756	0.0571
438.072	0.0574
438.388	0.0576
438.704	0.0567
439.02	0.0571
439.336	0.0567
439.652	0.0567
439.968	0.0559
440.283	0.0554
440.599	0.0554
440.914	0.0566
441.23	0.0568
441.545	0.0561
441.86	0.0557
442.175	0.0556
442.491	0.0563
442.806	0.0562
443.121	0.0553
443.435	0.0551
443.75	0.0556
444.065	0.0553
444.38	0.0551
444.694	0.0558
445.009	0.056
445.323	0.0554
445.638	0.0541
445.952	0.0548
446.266	0.0551
446.58	0.0549
446.894	0.0546
447.208	0.0543
447.522	0.0539
447.836	0.0542
448.15	0.0532
448.464	0.0534
448.777	0.0538
449.091	0.0533
449.404	0.0534
449.718	0.053
450.031	0.0533
450.345	0.0526
450.658	0.0529
450.971	0.0527
451.284	0.0524
451.597	0.0519
451.91	0.0521
452.223	0.0518
452.535	0.051
452.848	0.0522
453.161	0.0511
453.473	0.0512
453.786	0.0508
454.098	0.0507
454.411	0.0511
454.723	0.0496
455.035	0.0506
455.347	0.0497
455.659	0.0499
455.971	0.0505
456.283	0.0494
456.595	0.0497
456.907	0.0499
457.218	0.049
457.53	0.048
457.841	0.0482
458.153	0.0481
458.464	0.0484
458.776	0.0485
459.087	0.048
459.398	0.0482
459.709	0.0478
460.02	0.0479
460.331	0.0462
460.642	0.0474
460.953	0.0466
461.263	0.0461
461.574	0.0459
461.885	0.0454
462.195	0.0451
462.506	0.0453
462.816	0.0456
463.126	0.0451
463.437	0.0453
463.747	0.0442
464.057	0.0439
464.367	0.0429
464.677	0.0432
464.987	0.0429
465.296	0.0431
465.606	0.0423
465.916	0.0422
466.225	0.0421
466.535	0.0419
466.844	0.042
467.154	0.0422
467.463	0.041
467.772	0.0413
468.081	0.0407
468.39	0.0398
468.699	0.0398
469.008	0.0398
469.317	0.0397
469.626	0.0378
469.935	0.0378
470.243	0.0385
470.552	0.0388
470.86	0.0385
471.169	0.0376
471.477	0.0377
471.785	0.0373
472.093	0.0376
472.402	0.0367
472.71	0.0371
473.018	0.0358
473.326	0.0352
473.633	0.0364
473.941	0.0354
474.249	0.0348
474.556	0.0354
474.864	0.035
475.171	0.0347
475.479	0.0341
475.786	0.0344
476.094	0.0339
476.401	0.0327
476.708	0.0333
477.015	0.0336
477.322	0.0325
477.629	0.0326
477.936	0.033
478.242	0.0318
478.549	0.0314
478.856	0.0316
479.162	0.0302
479.469	0.0308
479.775	0.031
480.081	0.0302
480.388	0.0299
480.694	0.0303
481	0.0295
481.306	0.0292
481.612	0.0289
481.918	0.0288
482.224	0.0281
482.53	0.0284
482.835	0.0287
483.141	0.0279
483.446	0.0276
483.752	0.027
484.057	0.0271
484.363	0.0258
484.668	0.0264
484.973	0.0252
485.278	0.0258
485.583	0.0253
485.888	0.0256
486.193	0.024
486.498	0.0236
486.803	0.0239
487.107	0.025
487.412	0.0237
487.717	0.0233
488.021	0.0231
488.325	0.0245
488.63	0.023
488.934	0.0237
489.238	0.0228
489.542	0.0218
489.846	0.0228
490.15	0.022
490.454	0.0213
490.758	0.0207
491.062	0.0211
491.366	0.0209
491.669	0.0202
491.973	0.0211
492.276	0.02
492.58	0.0203
492.883	0.0194
493.186	0.0189
493.489	0.0192
493.792	0.0189
494.096	0.0178
494.399	0.0182
494.701	0.0187
495.004	0.0174
495.307	0.0182
495.61	0.0176
495.912	0.0173
496.215	0.0166
496.517	0.0158
496.82	0.0171
497.122	0.016
497.424	0.0167
497.727	0.0154
498.029	0.0154
498.331	0.0147
498.633	0.0161
498.935	0.0153
499.237	0.0154
499.538	0.015
499.84	0.0142
500.142	0.0136
500.443	0.0134
500.745	0.0135
501.046	0.0127
501.348	0.0129
501.649	0.0127
501.95	0.0122
502.251	0.0133
502.552	0.0133
502.853	0.0109
503.154	0.0122
503.455	0.0121
503.756	0.0122
504.057	0.012
504.357	0.0104
504.658	0.0116
504.958	0.0119
505.259	0.011
505.559	0.0104
505.859	0.0105
506.16	0.0101
506.46	0.0101
506.76	0.0104
507.06	0.01
507.36	0.0095
507.66	0.0092
507.96	0.0097
508.259	0.0098
508.559	0.0101
508.859	0.0091
509.158	0.0087
509.457	0.0087
509.757	0.0084
510.056	0.0087
510.355	0.0092
510.655	0.008
510.954	0.0094
511.253	0.0085
511.552	0.0077
511.851	0.0079
512.149	0.0066
512.448	0.008
512.747	0.0077
513.045	0.0069
513.344	0.0071
513.642	0.0066
513.941	0.0081
514.239	0.0069
514.537	0.0058
514.836	0.0068
515.134	0.0052
515.432	0.0067
515.73	0.0055
516.028	0.0058
516.326	0.0066
516.623	0.0061
516.921	0.0049
517.219	0.0048
517.516	0.005
517.814	0.0048
518.111	0.0053
518.409	0.0043
518.706	0.0041
519.003	0.0051
519.3	0.0041
519.597	0.0035
519.894	0.0047
520.191	0.0046
520.488	0.0042
520.785	0.0029
521.082	0.0043
521.378	0.0031
521.675	0.0034
521.971	0.0026
522.268	0.0033
522.564	0.0037
522.861	0.0032
523.157	0.0035
523.453	0.0037
523.749	0.0035
524.045	0.0033
524.341	0.0036
524.637	0.0022
524.933	0.002
525.229	0.0032
525.524	0.0018
525.82	0.0022
526.115	0.0017
526.411	0.003
526.706	0.0021
527.002	0.0032
527.297	0.001
527.592	0.0026
527.887	0.0035
528.182	0.0022
528.477	0.0033
528.772	0.0027
529.067	0.0028
529.362	0.0022
529.657	0.0016
529.951	0.0018
530.246	0.0014
530.54	0.0022
530.835	0.0009
531.129	0.0014
531.423	0.001
531.718	0.0001
532.012	0.0016
532.306	0.0011
532.6	0.0006
532.894	0.001
533.188	0.0015
533.482	0.0017
533.775	0.0009
534.069	0.0018
534.363	-0.0005
534.656	-0
534.95	0.0008
535.243	-0.0003
535.536	0.0024
535.83	-0.0017
536.123	0.0014
536.416	0.0002
536.709	0.0007
537.002	0.0006
537.295	0.0007
537.588	0.0003
537.881	-0.0007
538.173	0.0006
538.466	-0.0005
538.759	0.0012
539.051	0.0007
539.344	0.0009
539.636	0.0005
539.928	0.001
540.22	0.0003
540.513	-0.0001
540.805	0.0003
541.097	-0.0008
541.389	0
541.681	0.0011
541.972	0.001
542.264	0.0003
542.556	0.0004
542.847	-0.0002
543.139	-0
543.431	-0.0007
543.722	-0.0003
544.013	0.0005
544.305	-0.0004
544.596	-0.0005
544.887	0.0006
545.178	0.0006
545.469	-0.0013
545.76	-0.0008
546.051	-0.0001
546.342	-0.0004
546.632	-0.0006
546.923	-0.0007
547.214	-0.0001
547.504	-0.0017
547.795	-0.0013
548.085	-0.0011
548.375	-0.0014
548.666	-0.0012
548.956	-0.0012
549.246	0
549.536	-0.0001
549.826	-0.0009
550.116	-0
550.406	-0.0006
550.695	-0.0015
550.985	-0.0004
551.275	-0.001
551.564	-0.0005
551.854	-0.0004
552.143	-0.0009
552.433	-0.0016
552.722	-0.0022
553.011	0.0001
553.3	-0.0008
553.589	-0.0004
553.879	-0.0005
554.167	-0.0007
554.456	0.0008
554.745	-0.0002
555.034	-0.0008
555.323	0.0009
555.611	0
555.9	0.0001
556.188	-0.001
556.477	0.0002
556.765	-0.0019
557.053	-0.0015
557.342	0.0003
557.63	-0.0005
557.918	-0.0001
558.206	0.0002
558.494	0.0004
558.782	-0
559.069	-0.0002
559.357	-0.0003
559.645	-0.0005
559.932	-0.0011
560.22	0.0002
560.507	-0.0009
560.795	-0.0015
561.082	-0.001
561.37	0.0002
561.657	-0.0013
561.944	-0.001
562.231	-0.0001
562.518	0.0002
562.805	-0.0005
563.092	0.0009
563.379	0.0003
563.665	0.0006
563.952	0.0002
564.239	-0.0004
564.525	0.0001
564.811	0.0007
565.098	0.0002
565.384	-0.0012
565.67	0.0012
565.957	0.0014
566.243	0.0013
566.529	-0.0003
566.815	-0.0005
567.101	0.0008
567.387	0.0006
567.672	0.0004
567.958	0.0003
568.244	-0
568.529	-0.0001
568.815	0.0001
569.1	-0.0009
569.386	-0.0016
569.671	0.0008
569.956	-0.0001
570.242	-0.0001
570.527	-0.0008
570.812	-0.0003
571.097	0.0004
571.382	-0.0003
571.666	0.0007
571.951	-0.0001
572.236	0.0004
572.521	-0.0001
572.805	-0.0004
573.09	-0.0005
573.374	-0.0007
573.659	-0.0003
573.943	-0.0006
574.227	-0.0004
574.511	-0.0008
574.795	-0.0006
575.079	0.0003
575.363	-0.0009
575.647	-0.0009
575.931	-0.0003
576.215	-0.0012
576.499	-0.0004
576.782	-0.0014
577.066	-0.001
577.349	0.0002
577.633	0.0001
577.916	-0.0006
578.2	0.0002
578.483	-0.0009
578.766	-0.0002
579.049	-0.0001
579.332	0.0003
579.615	0.0003
579.898	-0
580.181	0
580.464	0.0006
580.746	0
581.029	-0.0005
581.312	-0.0001
581.594	-0.0005
581.877	-0.0007
582.159	-0.001
582.441	-0.0008
582.724	-0.0005
583.006	-0.0001
583.288	0
583.57	0.0003
583.852	-0
584.134	0.0004
584.416	-0.0006
584.697	0.0005
584.979	-0.001
585.261	-0.0008
585.542	-0.0009
585.824	-0.001
586.105	-0.0012
586.387	-0.001
586.668	-0.0005
586.949	0.0001
587.231	0.0006
587.512	0.0003
587.793	0.0007
588.074	-0.0003
588.355	0.0004
588.636	-0.0007
588.916	-0.0005
589.197	0
589.478	-0.0009
589.758	-0
590.039	-0.0003
590.319	-0.0004
590.6	-0.0003
590.88	0.0003
591.16	0.0005
591.441	-0
591.721	0.0003
592.001	-0.0008
592.281	-0.0002
592.561	-0.0001
592.841	-0.0005
593.12	-0.0017
593.4	-0.0009
593.68	-0.0022
593.959	-0.0015
594.239	-0.0016
594.518	-0.0004
594.798	-0.0001
595.077	-0.0007
595.356	-0.0007
