Data from 03 0.5 mM K2Cr2O7 0.3 mM BQDS 1 M H2SO4 5 min_Absorbance_0126.txt Node
Date: Tue Dec 14 04:09:45 EST 2021
User: kwabilab-user
Spectrometer: HDX00518
Trigger mode: 0
Integration Time (sec): 5.000000E-2
Scans to average: 50
Nonlinearity correction enabled: false
Boxcar width: 0
Storing dark spectrum: false
XAxis mode: Wavelengths
Number of Pixels in Spectrum: 2068
>>>>>Begin Spectral Data<<<<<
195.27	0.0052
195.642	-0.058
196.014	-0.1102
196.386	0.0733
196.758	-0.0739
197.129	-0.0487
197.501	-0.0396
197.872	-0.0134
198.244	0.0086
198.615	0.0053
198.986	0.0141
199.357	0.0176
199.728	0.0192
200.099	0.0219
200.47	-0.0019
200.841	0.0218
201.212	0.0282
201.582	0.0264
201.953	0.0149
202.323	0.0211
202.694	0.0213
203.064	0.0102
203.434	0.0093
203.804	0.0019
204.174	0.0098
204.544	0.0149
204.914	0.0019
205.284	0.0015
205.653	-0.0074
206.023	0.0119
206.393	-0.0223
206.762	0.0067
207.131	0.0078
207.501	-0.0113
207.87	0.0327
208.239	0.0138
208.608	-0.0265
208.977	-0.0053
209.346	0.0067
209.715	-0.0166
210.083	-0.0012
210.452	0.0042
210.82	0.0044
211.189	-0.0296
211.557	0.0167
211.925	-0.0409
212.294	-0.0004
212.662	0.0146
213.03	-0.0021
213.398	0.0213
213.766	0.0323
214.133	0.0111
214.501	-0.0049
214.869	0.0165
215.236	-0.0044
215.604	0.0095
215.971	0.0187
216.338	0.0211
216.705	0.0189
217.072	0.0278
217.439	0.0232
217.806	0.0251
218.173	0.0361
218.54	0.03
218.907	0.0392
219.273	0.053
219.64	0.0351
220.006	0.0558
220.373	0.0545
220.739	0.0868
221.105	0.0863
221.471	0.1125
221.837	0.1204
222.203	0.1609
222.569	0.145
222.935	0.1728
223.3	0.1935
223.666	0.2321
224.031	0.2303
224.397	0.2623
224.762	0.2874
225.127	0.2976
225.493	0.3399
225.858	0.3503
226.223	0.3784
226.588	0.3939
226.952	0.4242
227.317	0.4433
227.682	0.4574
228.046	0.4691
228.411	0.487
228.775	0.4962
229.14	0.5121
229.504	0.5338
229.868	0.5341
230.232	0.5563
230.596	0.5658
230.96	0.5893
231.324	0.5823
231.688	0.5966
232.052	0.6098
232.415	0.6035
232.779	0.6111
233.142	0.6245
233.505	0.6354
233.869	0.6396
234.232	0.6482
234.595	0.6464
234.958	0.6518
235.321	0.6414
235.684	0.6534
236.047	0.6386
236.409	0.6395
236.772	0.6484
237.134	0.6461
237.497	0.6517
237.859	0.658
238.222	0.6493
238.584	0.6465
238.946	0.6449
239.308	0.6517
239.67	0.6422
240.032	0.6404
240.393	0.6468
240.755	0.6397
241.117	0.64
241.478	0.6378
241.84	0.642
242.201	0.6305
242.562	0.6308
242.924	0.6243
243.285	0.6147
243.646	0.6262
244.007	0.6218
244.368	0.6183
244.728	0.6258
245.089	0.6151
245.45	0.617
245.81	0.619
246.171	0.6144
246.531	0.6154
246.891	0.6118
247.252	0.6029
247.612	0.6082
247.972	0.6069
248.332	0.6076
248.692	0.6143
249.051	0.6093
249.411	0.6061
249.771	0.6014
250.13	0.601
250.49	0.6009
250.849	0.6014
251.208	0.6022
251.568	0.6042
251.927	0.6131
252.286	0.6044
252.645	0.6114
253.004	0.6076
253.363	0.6093
253.721	0.6094
254.08	0.6021
254.439	0.5946
254.797	0.5958
255.155	0.5916
255.514	0.5944
255.872	0.5988
256.23	0.5945
256.588	0.5953
256.946	0.5953
257.304	0.5909
257.662	0.5957
258.02	0.5951
258.377	0.5923
258.735	0.5912
259.093	0.591
259.45	0.5917
259.807	0.5826
260.165	0.5881
260.522	0.5833
260.879	0.584
261.236	0.5873
261.593	0.576
261.95	0.5772
262.306	0.5711
262.663	0.5691
263.02	0.5693
263.376	0.5702
263.733	0.5657
264.089	0.5626
264.445	0.56
264.802	0.5648
265.158	0.5615
265.514	0.5578
265.87	0.5532
266.226	0.5512
266.581	0.5517
266.937	0.5492
267.293	0.5441
267.648	0.5389
268.004	0.5354
268.359	0.5347
268.714	0.5269
269.07	0.5247
269.425	0.5228
269.78	0.5201
270.135	0.5207
270.49	0.5195
270.844	0.5194
271.199	0.5131
271.554	0.5128
271.908	0.5041
272.263	0.5042
272.617	0.4991
272.972	0.4956
273.326	0.4895
273.68	0.4891
274.034	0.4858
274.388	0.4843
274.742	0.4825
275.096	0.4795
275.45	0.4699
275.803	0.4642
276.157	0.4669
276.51	0.4578
276.864	0.4583
277.217	0.4569
277.571	0.4547
277.924	0.4469
278.277	0.4443
278.63	0.4391
278.983	0.436
279.336	0.4289
279.688	0.4279
280.041	0.4196
280.394	0.4182
280.746	0.4156
281.099	0.4106
281.451	0.4038
281.803	0.4057
282.156	0.3972
282.508	0.3943
282.86	0.3904
283.212	0.3825
283.564	0.3811
283.916	0.3792
284.267	0.3711
284.619	0.3686
284.971	0.3665
285.322	0.3615
285.673	0.3568
286.025	0.3527
286.376	0.3474
286.727	0.3446
287.078	0.3415
287.429	0.3367
287.78	0.3336
288.131	0.3289
288.482	0.3236
288.833	0.3205
289.183	0.3149
289.534	0.3121
289.884	0.3104
290.235	0.305
290.585	0.2996
290.935	0.297
291.285	0.291
291.635	0.2885
291.985	0.286
292.335	0.2808
292.685	0.2783
293.035	0.2756
293.384	0.2707
293.734	0.2677
294.083	0.2624
294.433	0.258
294.782	0.2548
295.131	0.2499
295.48	0.2464
295.829	0.244
296.179	0.2408
296.527	0.237
296.876	0.2326
297.225	0.2297
297.574	0.2252
297.922	0.2238
298.271	0.2198
298.619	0.2156
298.968	0.2118
299.316	0.2092
299.664	0.2067
300.012	0.2042
300.36	0.2003
300.708	0.1985
301.056	0.1957
301.404	0.1916
301.752	0.1918
302.099	0.1873
302.447	0.1848
302.794	0.1826
303.142	0.1797
303.489	0.1771
303.836	0.1758
304.183	0.1739
304.531	0.172
304.878	0.17
305.224	0.1697
305.571	0.1659
305.918	0.1647
306.265	0.1636
306.611	0.1614
306.958	0.1615
307.304	0.1591
307.651	0.1585
307.997	0.1569
308.343	0.1562
308.689	0.1539
309.035	0.1536
309.381	0.1517
309.727	0.152
310.073	0.1521
310.419	0.1512
310.764	0.149
311.11	0.1489
311.455	0.1495
311.801	0.1485
312.146	0.1485
312.491	0.1478
312.837	0.1472
313.182	0.1479
313.527	0.1481
313.872	0.1475
314.216	0.1477
314.561	0.1469
314.906	0.148
315.251	0.1483
315.595	0.149
315.94	0.1487
316.284	0.1486
316.628	0.1501
316.972	0.1507
317.317	0.1507
317.661	0.1514
318.005	0.1526
318.348	0.1538
318.692	0.1544
319.036	0.1537
319.38	0.1556
319.723	0.1561
320.067	0.1574
320.41	0.1584
320.754	0.1605
321.097	0.1608
321.44	0.1614
321.783	0.1634
322.126	0.1642
322.469	0.1654
322.812	0.1669
323.155	0.1681
323.498	0.1703
323.84	0.1713
324.183	0.1733
324.525	0.175
324.868	0.177
325.21	0.1768
325.552	0.1789
325.894	0.1805
326.236	0.1815
326.578	0.1831
326.92	0.1847
327.262	0.1876
327.604	0.1881
327.946	0.1897
328.287	0.1917
328.629	0.1938
328.97	0.1951
329.312	0.1966
329.653	0.1974
329.994	0.2005
330.335	0.2009
330.676	0.2033
331.017	0.2058
331.358	0.208
331.699	0.2091
332.04	0.2112
332.38	0.2123
332.721	0.214
333.061	0.2164
333.402	0.2188
333.742	0.2201
334.083	0.2222
334.423	0.2228
334.763	0.2245
335.103	0.2252
335.443	0.2275
335.783	0.2282
336.123	0.2304
336.462	0.232
336.802	0.2333
337.141	0.2346
337.481	0.2361
337.82	0.2374
338.16	0.238
338.499	0.2409
338.838	0.2414
339.177	0.2438
339.516	0.2453
339.855	0.2467
340.194	0.2469
340.533	0.2481
340.872	0.2492
341.21	0.2502
341.549	0.2519
341.887	0.2526
342.226	0.2531
342.564	0.2548
342.902	0.2548
343.24	0.2552
343.578	0.2558
343.916	0.257
344.254	0.2577
344.592	0.2578
344.93	0.2584
345.268	0.2587
345.605	0.258
345.943	0.2587
346.28	0.2598
346.618	0.2598
346.955	0.2598
347.292	0.2605
347.629	0.261
347.966	0.2604
348.303	0.2617
348.64	0.2623
348.977	0.2607
349.314	0.2623
349.65	0.2617
349.987	0.2619
350.324	0.2624
350.66	0.2616
350.996	0.2611
351.333	0.2602
351.669	0.2607
352.005	0.2599
352.341	0.2587
352.677	0.2575
353.013	0.2565
353.349	0.2561
353.685	0.2545
354.02	0.2537
354.356	0.2527
354.691	0.2519
355.027	0.2499
355.362	0.2504
355.697	0.2495
356.033	0.2482
356.368	0.2476
356.703	0.2466
357.038	0.2451
357.373	0.2441
357.707	0.2441
358.042	0.2423
358.377	0.2418
358.711	0.2411
359.046	0.2395
359.38	0.2383
359.715	0.2377
360.049	0.2366
360.383	0.2338
360.717	0.233
361.051	0.2314
361.385	0.2304
361.719	0.2278
362.053	0.2271
362.387	0.2254
362.72	0.2233
363.054	0.2211
363.387	0.2202
363.721	0.2181
364.054	0.2159
364.387	0.2136
364.721	0.2126
365.054	0.21
365.387	0.2086
365.72	0.2065
366.053	0.2056
366.385	0.2032
366.718	0.2014
367.051	0.2004
367.383	0.1996
367.716	0.1976
368.048	0.1964
368.381	0.1942
368.713	0.194
369.045	0.192
369.377	0.1904
369.709	0.1894
370.041	0.1876
370.373	0.1862
370.705	0.1834
371.037	0.1828
371.368	0.181
371.7	0.1801
372.031	0.1774
372.363	0.1756
372.694	0.1731
373.025	0.1706
373.356	0.1689
373.688	0.167
374.019	0.1645
374.35	0.1624
374.68	0.1608
375.011	0.1586
375.342	0.1561
375.673	0.155
376.003	0.1524
376.334	0.1512
376.664	0.1487
376.995	0.1471
377.325	0.1448
377.655	0.1442
377.985	0.1424
378.315	0.1405
378.645	0.1388
378.975	0.1375
379.305	0.1366
379.635	0.1353
379.964	0.1347
380.294	0.1321
380.623	0.1323
380.953	0.1299
381.282	0.1282
381.611	0.1262
381.941	0.1254
382.27	0.1239
382.599	0.1222
382.928	0.1206
383.257	0.1194
383.585	0.1177
383.914	0.1165
384.243	0.114
384.571	0.1124
384.9	0.1106
385.228	0.1089
385.557	0.1068
385.885	0.1049
386.213	0.1038
386.541	0.1022
386.869	0.1006
387.197	0.0981
387.525	0.0974
387.853	0.0948
388.181	0.0941
388.508	0.0922
388.836	0.0907
389.164	0.0889
389.491	0.088
389.818	0.0873
390.146	0.0853
390.473	0.085
390.8	0.0829
391.127	0.0819
391.454	0.0803
391.781	0.0799
392.108	0.0782
392.435	0.0771
392.761	0.076
393.088	0.0755
393.415	0.0744
393.741	0.0742
394.067	0.0727
394.394	0.0718
394.72	0.0703
395.046	0.0702
395.372	0.069
395.698	0.069
396.024	0.0671
396.35	0.0662
396.676	0.0649
397.001	0.0643
397.327	0.0633
397.653	0.062
397.978	0.0606
398.303	0.0603
398.629	0.0589
398.954	0.0578
399.279	0.0575
399.604	0.0565
399.929	0.0561
400.254	0.0561
400.579	0.0553
400.904	0.0542
401.229	0.053
401.553	0.0529
401.878	0.0523
402.202	0.0513
402.527	0.0507
402.851	0.0511
403.175	0.0503
403.5	0.0501
403.824	0.0489
404.148	0.0487
404.472	0.0477
404.796	0.0473
405.119	0.047
405.443	0.0464
405.767	0.046
406.09	0.046
406.414	0.0455
406.737	0.0448
407.061	0.0451
407.384	0.0449
407.707	0.0452
408.03	0.0444
408.353	0.0442
408.676	0.0439
408.999	0.0444
409.322	0.0437
409.645	0.0433
409.968	0.0433
410.29	0.0433
410.613	0.0437
410.935	0.0435
411.258	0.0427
411.58	0.0429
411.902	0.043
412.224	0.0424
412.546	0.0424
412.868	0.0422
413.19	0.0429
413.512	0.0424
413.834	0.0415
414.156	0.042
414.477	0.0418
414.799	0.042
415.121	0.0423
415.442	0.0423
415.763	0.0414
416.085	0.0419
416.406	0.0418
416.727	0.0421
417.048	0.0421
417.369	0.0408
417.69	0.0411
418.011	0.0407
418.331	0.0415
418.652	0.0422
418.973	0.0415
419.293	0.042
419.614	0.0416
419.934	0.0423
420.254	0.042
420.574	0.0419
420.895	0.0424
421.215	0.0417
421.535	0.0417
421.855	0.0409
422.174	0.0415
422.494	0.0411
422.814	0.0418
423.134	0.0413
423.453	0.0419
423.773	0.0417
424.092	0.0415
424.411	0.0412
424.731	0.0419
425.05	0.0406
425.369	0.0413
425.688	0.0415
426.007	0.0418
426.326	0.0415
426.644	0.0417
426.963	0.0421
427.282	0.0419
427.6	0.0416
427.919	0.0415
428.237	0.0422
428.556	0.0425
428.874	0.0423
429.192	0.0423
429.51	0.0423
429.828	0.042
430.146	0.0424
430.464	0.041
430.782	0.0419
431.1	0.0424
431.418	0.0417
431.735	0.0414
432.053	0.0418
432.37	0.0423
432.688	0.0421
433.005	0.0418
433.322	0.0422
433.639	0.0422
433.957	0.0426
434.274	0.0427
434.591	0.0423
434.907	0.0416
435.224	0.0421
435.541	0.0425
435.858	0.0428
436.174	0.0429
436.491	0.0419
436.807	0.0413
437.124	0.0419
437.44	0.0419
437.756	0.0418
438.072	0.0426
438.388	0.0428
438.704	0.0416
439.02	0.042
439.336	0.0415
439.652	0.0417
439.968	0.0408
440.283	0.0407
440.599	0.0411
440.914	0.041
441.23	0.0418
441.545	0.0412
441.86	0.0409
442.175	0.041
442.491	0.0412
442.806	0.0404
443.121	0.0404
443.435	0.0399
443.75	0.0408
444.065	0.0403
444.38	0.0406
444.694	0.0411
445.009	0.0408
445.323	0.0406
445.638	0.0406
445.952	0.0408
446.266	0.0409
446.58	0.0402
446.894	0.0399
447.208	0.04
447.522	0.0404
447.836	0.04
448.15	0.0398
448.464	0.0401
448.777	0.0397
449.091	0.039
449.404	0.0391
449.718	0.0387
450.031	0.0384
450.345	0.0384
450.658	0.0395
450.971	0.0386
451.284	0.0388
451.597	0.038
451.91	0.0383
452.223	0.0383
452.535	0.0374
452.848	0.0386
453.161	0.037
453.473	0.0375
453.786	0.0375
454.098	0.0371
454.411	0.0383
454.723	0.0365
455.035	0.0364
455.347	0.036
455.659	0.0364
455.971	0.037
456.283	0.0367
456.595	0.0365
456.907	0.0361
457.218	0.0357
457.53	0.0351
457.841	0.0352
458.153	0.0355
458.464	0.0357
458.776	0.0356
459.087	0.0347
459.398	0.0355
459.709	0.0346
460.02	0.0352
460.331	0.0339
460.642	0.0344
460.953	0.0338
461.263	0.0336
461.574	0.033
461.885	0.033
462.195	0.0333
462.506	0.0333
462.816	0.0325
463.126	0.033
463.437	0.0323
463.747	0.0317
464.057	0.0319
464.367	0.0314
464.677	0.0313
464.987	0.031
465.296	0.0311
465.606	0.03
465.916	0.0311
466.225	0.0303
466.535	0.0301
466.844	0.0308
467.154	0.0301
467.463	0.0292
467.772	0.0299
468.081	0.0292
468.39	0.0297
468.699	0.0289
469.008	0.0286
469.317	0.0277
469.626	0.0273
469.935	0.027
470.243	0.0272
470.552	0.0273
470.86	0.0273
471.169	0.0267
471.477	0.027
471.785	0.0273
472.093	0.0271
472.402	0.0265
472.71	0.0272
473.018	0.0259
473.326	0.025
473.633	0.0258
473.941	0.0254
474.249	0.0251
474.556	0.0259
474.864	0.0254
475.171	0.0248
475.479	0.0246
475.786	0.0238
476.094	0.024
476.401	0.0239
476.708	0.0238
477.015	0.0232
477.322	0.0238
477.629	0.0229
477.936	0.0237
478.242	0.0219
478.549	0.0225
478.856	0.0227
479.162	0.0217
479.469	0.0217
479.775	0.0225
480.081	0.0218
480.388	0.0209
480.694	0.0211
481	0.0204
481.306	0.0206
481.612	0.0196
481.918	0.0201
482.224	0.0199
482.53	0.019
482.835	0.0194
483.141	0.0199
483.446	0.0187
483.752	0.0186
484.057	0.0187
484.363	0.0181
484.668	0.0183
484.973	0.0172
485.278	0.0178
485.583	0.017
485.888	0.0178
486.193	0.0162
486.498	0.0166
486.803	0.0167
487.107	0.0167
487.412	0.016
487.717	0.0164
488.021	0.0158
488.325	0.0162
488.63	0.0156
488.934	0.0163
489.238	0.0158
489.542	0.0145
489.846	0.0153
490.15	0.0154
490.454	0.0143
490.758	0.0138
491.062	0.0142
491.366	0.0142
491.669	0.0136
491.973	0.0146
492.276	0.0129
492.58	0.0132
492.883	0.0126
493.186	0.0136
493.489	0.0124
493.792	0.0111
494.096	0.0115
494.399	0.0113
494.701	0.0123
495.004	0.0107
495.307	0.0122
495.61	0.0109
495.912	0.0117
496.215	0.0104
496.517	0.0099
496.82	0.0107
497.122	0.0103
497.424	0.0105
497.727	0.0095
498.029	0.0089
498.331	0.0092
498.633	0.0098
498.935	0.0101
499.237	0.0094
499.538	0.0091
499.84	0.0083
500.142	0.0093
500.443	0.0081
500.745	0.008
501.046	0.0078
501.348	0.0079
501.649	0.0074
501.95	0.0078
502.251	0.0079
502.552	0.0077
502.853	0.0056
503.154	0.0064
503.455	0.0066
503.756	0.0071
504.057	0.0065
504.357	0.0055
504.658	0.006
504.958	0.0061
505.259	0.0062
505.559	0.0054
505.859	0.006
506.16	0.0054
506.46	0.0064
506.76	0.006
507.06	0.0057
507.36	0.0057
507.66	0.0051
507.96	0.0062
508.259	0.0054
508.559	0.0054
508.859	0.0048
509.158	0.0047
509.457	0.0046
509.757	0.0052
510.056	0.0052
510.355	0.0045
510.655	0.0031
510.954	0.0046
511.253	0.0035
511.552	0.004
511.851	0.0039
512.149	0.003
512.448	0.0041
512.747	0.0037
513.045	0.0028
513.344	0.002
513.642	0.0028
513.941	0.0029
514.239	0.0025
514.537	0.0019
514.836	0.0036
515.134	0.0013
515.432	0.0028
515.73	0.0031
516.028	0.0024
516.326	0.0025
516.623	0.0022
516.921	0.0015
517.219	0.0021
517.516	0.0031
517.814	0.0018
518.111	0.0019
518.409	-0.0003
518.706	0.0009
519.003	0.0026
519.3	0.0009
519.597	0.0012
519.894	0.0018
520.191	0.0021
520.488	0.0014
520.785	0.0004
521.082	0.0017
521.378	0.0007
521.675	0.0012
521.971	0.0003
522.268	0.0007
522.564	0.0009
522.861	0.0009
523.157	0.0012
523.453	0.0015
523.749	0.002
524.045	0.0015
524.341	0.0013
524.637	0.0002
524.933	0.001
525.229	0.0004
525.524	0.0002
525.82	-0.0006
526.115	-0.0003
526.411	0.0004
526.706	0.0003
527.002	0.0009
527.297	-0.0008
527.592	0.0006
527.887	0.0021
528.182	0.0003
528.477	0.0008
528.772	0.0009
529.067	0.0006
529.362	-0.0003
529.657	0.0001
529.951	0.0006
530.246	-0.0003
530.54	-0.0001
530.835	-0.0009
531.129	-0.0001
531.423	0.0003
531.718	0.0007
532.012	-0.0002
532.306	-0.0006
532.6	-0.0012
532.894	0.0004
533.188	-0
533.482	-0.001
533.775	-0
534.069	-0.0007
534.363	-0.002
534.656	-0.0009
534.95	-0
535.243	-0.0013
535.536	0.0001
535.83	-0.0018
536.123	-0
536.416	-0.0004
536.709	-0.0001
537.002	-0.0011
537.295	-0.0009
537.588	-0.0013
537.881	-0.0014
538.173	-0
538.466	-0.0006
538.759	-0.0008
539.051	-0.0003
539.344	-0.0006
539.636	-0.0008
539.928	0.0005
540.22	-0.0004
540.513	0.0002
540.805	-0.0001
541.097	-0.0016
541.389	-0.001
541.681	0.0012
541.972	0.0002
542.264	0.0007
542.556	-0.0001
542.847	0.0012
543.139	-0.0004
543.431	-0.0005
543.722	0.0007
544.013	0.0005
544.305	-0
544.596	-0.0003
544.887	-0.0004
545.178	-0.0003
545.469	-0.0013
545.76	-0.0007
546.051	0.001
546.342	-0.0002
546.632	-0.001
546.923	-0.0007
547.214	-0.0003
547.504	-0.001
547.795	-0.0006
548.085	-0.0007
548.375	-0.0007
548.666	-0.0016
548.956	-0.0013
549.246	-0.0006
549.536	-0.0009
549.826	-0.0004
550.116	-0.0005
550.406	-0.0012
550.695	-0.0013
550.985	-0.0008
551.275	-0.0006
551.564	-0.0007
551.854	-0
552.143	-0.0013
552.433	-0.0018
552.722	-0.0022
553.011	-0
553.3	-0.0009
553.589	-0.0008
553.879	-0.0011
554.167	-0.0004
554.456	0.0002
554.745	0.0011
555.034	-0.0011
555.323	0.0008
555.611	-0.0005
555.9	-0.0004
556.188	-0.0012
556.477	-0.0009
556.765	-0.0027
557.053	-0.0019
557.342	-0
557.63	0.0001
557.918	-0.0001
558.206	0.0016
558.494	-0.0006
558.782	-0.0001
559.069	0.0013
559.357	0.0015
559.645	-0.0008
559.932	0.0002
560.22	-0.001
560.507	-0.0005
560.795	-0.0006
561.082	-0.0013
561.37	-0.0003
561.657	-0.0003
561.944	-0.0011
562.231	-0.0004
562.518	0.0004
562.805	-0.0003
563.092	0.001
563.379	0.0005
563.665	0.0001
563.952	-0.0001
564.239	0.0006
564.525	0.0004
564.811	0.0015
565.098	0.0005
565.384	-0.0008
565.67	0.0007
565.957	0.0017
566.243	0.0018
566.529	0.0007
566.815	-0.0003
567.101	-0.0003
567.387	0.0017
567.672	0.0005
567.958	0.002
568.244	0.0004
568.529	0.0003
568.815	-0.0001
569.1	-0.0004
569.386	-0.0012
569.671	0.0006
569.956	-0
570.242	-0.0001
570.527	-0.0009
570.812	-0.0008
571.097	0.0002
571.382	-0.0007
571.666	0.0007
571.951	-0.0006
572.236	-0
572.521	0.0002
572.805	0
573.09	-0.0002
573.374	-0.001
573.659	-0.0007
573.943	-0.0004
574.227	-0.0003
574.511	-0.0009
574.795	-0.0001
575.079	0.0001
575.363	-0.0004
575.647	-0.0008
575.931	-0.0003
576.215	-0.0009
576.499	-0.0009
576.782	-0.0014
577.066	-0.0002
577.349	0.0004
577.633	0.0002
577.916	-0.0007
578.2	-0.0008
578.483	-0.0006
578.766	0
579.049	-0.0001
579.332	0.0012
579.615	0.0007
579.898	-0.0001
580.181	0.0006
580.464	0.0015
580.746	-0.0001
581.029	0.0005
581.312	-0.0004
581.594	-0.0012
581.877	-0.0013
582.159	-0.0012
582.441	-0.0009
582.724	-0.0002
583.006	0.0002
583.288	0.0005
583.57	0.0006
583.852	0.0012
584.134	0.0012
584.416	0
584.697	0.0007
584.979	-0.0009
585.261	-0.0014
585.542	-0.0015
585.824	-0.001
586.105	-0.0012
586.387	-0.001
586.668	-0
586.949	-0.0001
587.231	0.0001
587.512	0.0004
587.793	0.0005
588.074	-0.0009
588.355	0.0003
588.636	-0.0005
588.916	-0.0009
589.197	-0.0006
589.478	-0.0004
589.758	0.0008
590.039	-0
590.319	0.0003
590.6	0.0008
590.88	0.001
591.16	0.0013
591.441	0.0014
591.721	0.0009
592.001	-0.0007
592.281	-0.0001
592.561	0.0007
592.841	-0.0003
593.12	-0.0021
593.4	-0.0012
593.68	-0.0017
593.959	-0.0012
594.239	-0.0007
594.518	-0.0003
594.798	0.0015
