Data from 03 0.5 mM K2Cr2O7 0.3 mM BQDS 1 M H2SO4 5 min_Absorbance_0122.txt Node
Date: Tue Dec 14 03:49:44 EST 2021
User: kwabilab-user
Spectrometer: HDX00518
Trigger mode: 0
Integration Time (sec): 5.000000E-2
Scans to average: 50
Nonlinearity correction enabled: false
Boxcar width: 0
Storing dark spectrum: false
XAxis mode: Wavelengths
Number of Pixels in Spectrum: 2068
>>>>>Begin Spectral Data<<<<<
195.27	-0.1385
195.642	-0.1335
196.014	-0.1673
196.386	-0.0266
196.758	-0.0613
197.129	-0.0546
197.501	-0.0428
197.872	-0.0168
198.244	0.0031
198.615	0.0224
198.986	0.0032
199.357	0.0262
199.728	-0.002
200.099	0.0174
200.47	-0.0228
200.841	-0.002
201.212	0.0076
201.582	0.0076
201.953	0.0044
202.323	0.0052
202.694	0.0001
203.064	-0.0045
203.434	-0.0055
203.804	-0.0128
204.174	0.012
204.544	-0.0014
204.914	-0.0047
205.284	-0.0043
205.653	-0.0171
206.023	-0.0126
206.393	-0.0353
206.762	0.0018
207.131	0.0172
207.501	-0.0114
207.87	0.0054
208.239	-0.0111
208.608	-0.0059
208.977	-0.0123
209.346	-0.0211
209.715	-0.009
210.083	-0.0341
210.452	-0.0238
210.82	-0.0051
211.189	-0.0356
211.557	0.0237
211.925	-0.0312
212.294	-0.0063
212.662	-0.0142
213.03	-0.0291
213.398	0.0277
213.766	-0.0016
214.133	-0.0034
214.501	-0.0044
214.869	0.014
215.236	-0.0103
215.604	-0.0055
215.971	0.0142
216.338	0.0005
216.705	0.0143
217.072	0.0312
217.439	0.0005
217.806	0.0114
218.173	-0.0003
218.54	-0.0035
218.907	0.0343
219.273	0.0126
219.64	0.0246
220.006	0.0371
220.373	0.0444
220.739	0.0768
221.105	0.0827
221.471	0.1
221.837	0.1156
222.203	0.126
222.569	0.1376
222.935	0.1603
223.3	0.1777
223.666	0.2063
224.031	0.217
224.397	0.2523
224.762	0.2604
225.127	0.3095
225.493	0.3095
225.858	0.3303
226.223	0.3567
226.588	0.3658
226.952	0.3992
227.317	0.4238
227.682	0.4311
228.046	0.4575
228.411	0.4669
228.775	0.4858
229.14	0.5089
229.504	0.5291
229.868	0.5357
230.232	0.5322
230.596	0.549
230.96	0.577
231.324	0.581
231.688	0.587
232.052	0.5935
232.415	0.6029
232.779	0.6174
233.142	0.6073
233.505	0.6121
233.869	0.6318
234.232	0.6328
234.595	0.6381
234.958	0.6493
235.321	0.6279
235.684	0.6411
236.047	0.6413
236.409	0.6484
236.772	0.6368
237.134	0.6319
237.497	0.6462
237.859	0.6471
238.222	0.6493
238.584	0.633
238.946	0.6352
239.308	0.6298
239.67	0.6309
240.032	0.6287
240.393	0.6385
240.755	0.6349
241.117	0.6334
241.478	0.6268
241.84	0.6341
242.201	0.6207
242.562	0.6173
242.924	0.6213
243.285	0.6096
243.646	0.6136
244.007	0.6187
244.368	0.6222
244.728	0.6175
245.089	0.6199
245.45	0.6134
245.81	0.6134
246.171	0.6139
246.531	0.6106
246.891	0.6173
247.252	0.6054
247.612	0.61
247.972	0.6084
248.332	0.6068
248.692	0.6104
249.051	0.6131
249.411	0.5976
249.771	0.6082
250.13	0.6051
250.49	0.6062
250.849	0.6048
251.208	0.6034
251.568	0.6036
251.927	0.6051
252.286	0.6054
252.645	0.6086
253.004	0.6094
253.363	0.5979
253.721	0.6067
254.08	0.6058
254.439	0.596
254.797	0.5948
255.155	0.593
255.514	0.5972
255.872	0.5969
256.23	0.5963
256.588	0.5979
256.946	0.5934
257.304	0.5928
257.662	0.5954
258.02	0.5949
258.377	0.5936
258.735	0.5898
259.093	0.5886
259.45	0.5883
259.807	0.5856
260.165	0.5842
260.522	0.5835
260.879	0.5772
261.236	0.5799
261.593	0.5802
261.95	0.573
262.306	0.5756
262.663	0.5747
263.02	0.5706
263.376	0.5694
263.733	0.5603
264.089	0.5649
264.445	0.5561
264.802	0.5538
265.158	0.5606
265.514	0.5545
265.87	0.5519
266.226	0.5496
266.581	0.5478
266.937	0.549
267.293	0.5468
267.648	0.5384
268.004	0.5424
268.359	0.5295
268.714	0.5305
269.07	0.5307
269.425	0.5234
269.78	0.5192
270.135	0.5223
270.49	0.5199
270.844	0.5187
271.199	0.5125
271.554	0.5114
271.908	0.5057
272.263	0.5095
272.617	0.4981
272.972	0.4972
273.326	0.4943
273.68	0.4878
274.034	0.4862
274.388	0.486
274.742	0.4762
275.096	0.4785
275.45	0.4742
275.803	0.468
276.157	0.4643
276.51	0.4641
276.864	0.4601
277.217	0.4552
277.571	0.4518
277.924	0.4504
278.277	0.4464
278.63	0.439
278.983	0.4352
279.336	0.4287
279.688	0.4278
280.041	0.4243
280.394	0.4205
280.746	0.4159
281.099	0.4089
281.451	0.4073
281.803	0.402
282.156	0.3986
282.508	0.3963
282.86	0.3936
283.212	0.3855
283.564	0.3835
283.916	0.3833
284.267	0.3753
284.619	0.3707
284.971	0.3686
285.322	0.3634
285.673	0.3579
286.025	0.3522
286.376	0.3516
286.727	0.348
287.078	0.3426
287.429	0.3401
287.78	0.3367
288.131	0.3302
288.482	0.3266
288.833	0.3228
289.183	0.3177
289.534	0.3125
289.884	0.3099
290.235	0.3052
290.585	0.3025
290.935	0.2979
291.285	0.295
291.635	0.2906
291.985	0.2856
292.335	0.2817
292.685	0.28
293.035	0.276
293.384	0.2727
293.734	0.268
294.083	0.2625
294.433	0.2599
294.782	0.257
295.131	0.2516
295.48	0.2479
295.829	0.2447
296.179	0.2409
296.527	0.2394
296.876	0.2345
297.225	0.2309
297.574	0.2279
297.922	0.2251
298.271	0.2209
298.619	0.2183
298.968	0.2152
299.316	0.2109
299.664	0.2077
300.012	0.2061
300.36	0.2027
300.708	0.1995
301.056	0.1972
301.404	0.1943
301.752	0.1923
302.099	0.1888
302.447	0.1875
302.794	0.1838
303.142	0.1822
303.489	0.1784
303.836	0.1779
304.183	0.1755
304.531	0.1736
304.878	0.1714
305.224	0.1707
305.571	0.1662
305.918	0.1667
306.265	0.1649
306.611	0.1631
306.958	0.1619
307.304	0.1595
307.651	0.159
307.997	0.1575
308.343	0.1578
308.689	0.1554
309.035	0.1547
309.381	0.1542
309.727	0.1538
310.073	0.1522
310.419	0.1523
310.764	0.1508
311.11	0.1507
311.455	0.1507
311.801	0.1502
312.146	0.1493
312.491	0.1494
312.837	0.1484
313.182	0.1484
313.527	0.1483
313.872	0.1486
314.216	0.1489
314.561	0.1494
314.906	0.1491
315.251	0.1492
315.595	0.1501
315.94	0.1496
316.284	0.1501
316.628	0.1517
316.972	0.1521
317.317	0.1525
317.661	0.1528
318.005	0.1543
318.348	0.1548
318.692	0.1551
319.036	0.1558
319.38	0.1561
319.723	0.157
320.067	0.1586
320.41	0.1595
320.754	0.1606
321.097	0.1621
321.44	0.1633
321.783	0.1646
322.126	0.1663
322.469	0.1666
322.812	0.1687
323.155	0.1692
323.498	0.1705
323.84	0.1732
324.183	0.1747
324.525	0.1756
324.868	0.1777
325.21	0.1784
325.552	0.1802
325.894	0.1816
326.236	0.183
326.578	0.1844
326.92	0.1864
327.262	0.1882
327.604	0.1899
327.946	0.1915
328.287	0.1924
328.629	0.1945
328.97	0.1963
329.312	0.1977
329.653	0.1994
329.994	0.2009
330.335	0.203
330.676	0.2049
331.017	0.2071
331.358	0.2091
331.699	0.2101
332.04	0.2119
332.38	0.2141
332.721	0.2151
333.061	0.2179
333.402	0.2196
333.742	0.2215
334.083	0.2235
334.423	0.2243
334.763	0.2256
335.103	0.2269
335.443	0.228
335.783	0.2303
336.123	0.2312
336.462	0.2339
336.802	0.2348
337.141	0.2367
337.481	0.2371
337.82	0.2385
338.16	0.2398
338.499	0.2425
338.838	0.2417
339.177	0.2454
339.516	0.2467
339.855	0.2474
340.194	0.2482
340.533	0.2492
340.872	0.2507
341.21	0.2528
341.549	0.2532
341.887	0.2538
342.226	0.2556
342.564	0.2557
342.902	0.2562
343.24	0.2574
343.578	0.2574
343.916	0.2581
344.254	0.2592
344.592	0.2591
344.93	0.2599
345.268	0.2596
345.605	0.2599
345.943	0.2605
346.28	0.2611
346.618	0.2612
346.955	0.2621
347.292	0.2617
347.629	0.2622
347.966	0.2621
348.303	0.2629
348.64	0.2631
348.977	0.2627
349.314	0.2635
349.65	0.2631
349.987	0.263
350.324	0.2638
350.66	0.2628
350.996	0.2622
351.333	0.2616
351.669	0.2612
352.005	0.2615
352.341	0.2602
352.677	0.2594
353.013	0.259
353.349	0.2572
353.685	0.2566
354.02	0.2557
354.356	0.2539
354.691	0.2527
355.027	0.2521
355.362	0.2518
355.697	0.2501
356.033	0.2505
356.368	0.2491
356.703	0.2477
357.038	0.2465
357.373	0.2454
357.707	0.2444
358.042	0.2439
358.377	0.2433
358.711	0.2415
359.046	0.2401
359.38	0.2401
359.715	0.2377
360.049	0.2375
360.383	0.2363
360.717	0.2345
361.051	0.2336
361.385	0.2317
361.719	0.2293
362.053	0.2283
362.387	0.2262
362.72	0.2235
363.054	0.2229
363.387	0.2212
363.721	0.2185
364.054	0.2167
364.387	0.2158
364.721	0.2132
365.054	0.2111
365.387	0.2099
365.72	0.2078
366.053	0.2061
366.385	0.2043
366.718	0.203
367.051	0.202
367.383	0.2009
367.716	0.1991
368.048	0.1973
368.381	0.1957
368.713	0.1949
369.045	0.1935
369.377	0.1913
369.709	0.1902
370.041	0.1895
370.373	0.187
370.705	0.1855
371.037	0.1837
371.368	0.1817
371.7	0.1819
372.031	0.1788
372.363	0.1766
372.694	0.1735
373.025	0.1722
373.356	0.1699
373.688	0.1683
374.019	0.1658
374.35	0.1634
374.68	0.1614
375.011	0.1595
375.342	0.1568
375.673	0.1559
376.003	0.153
376.334	0.1516
376.664	0.1495
376.995	0.1479
377.325	0.1459
377.655	0.1445
377.985	0.1428
378.315	0.1414
378.645	0.1405
378.975	0.139
379.305	0.1373
379.635	0.1367
379.964	0.1354
380.294	0.133
380.623	0.1319
380.953	0.1309
381.282	0.1291
381.611	0.1272
381.941	0.1263
382.27	0.1244
382.599	0.1232
382.928	0.1216
383.257	0.1198
383.585	0.1181
383.914	0.1172
384.243	0.1152
384.571	0.1134
384.9	0.1109
385.228	0.1105
385.557	0.108
385.885	0.106
386.213	0.1041
386.541	0.1032
386.869	0.1006
387.197	0.099
387.525	0.0979
387.853	0.0962
388.181	0.0951
388.508	0.0931
388.836	0.0912
389.164	0.0896
389.491	0.0895
389.818	0.088
390.146	0.0862
390.473	0.0861
390.8	0.0837
391.127	0.083
391.454	0.0812
391.781	0.0798
392.108	0.0791
392.435	0.0779
392.761	0.0768
393.088	0.076
393.415	0.075
393.741	0.0749
394.067	0.0734
394.394	0.0727
394.72	0.071
395.046	0.071
395.372	0.07
395.698	0.0689
396.024	0.0678
396.35	0.0666
396.676	0.0652
397.001	0.065
397.327	0.064
397.653	0.0628
397.978	0.062
398.303	0.0606
398.629	0.0589
398.954	0.0585
399.279	0.0581
399.604	0.0577
399.929	0.057
400.254	0.0559
400.579	0.0554
400.904	0.0548
401.229	0.0539
401.553	0.0529
401.878	0.0527
402.202	0.0517
402.527	0.0514
402.851	0.0511
403.175	0.05
403.5	0.0496
403.824	0.0501
404.148	0.0496
404.472	0.0486
404.796	0.0476
405.119	0.0478
405.443	0.0477
405.767	0.0464
406.09	0.0466
406.414	0.046
406.737	0.0461
407.061	0.046
407.384	0.0455
407.707	0.0455
408.03	0.045
408.353	0.0455
408.676	0.0445
408.999	0.0446
409.322	0.0444
409.645	0.0448
409.968	0.0441
410.29	0.0437
410.613	0.0443
410.935	0.0439
411.258	0.0432
411.58	0.0431
411.902	0.0436
412.224	0.0429
412.546	0.0432
412.868	0.0429
413.19	0.0432
413.512	0.043
413.834	0.0417
414.156	0.0422
414.477	0.0424
414.799	0.0422
415.121	0.0425
415.442	0.0428
415.763	0.0422
416.085	0.0422
416.406	0.0425
416.727	0.0423
417.048	0.0423
417.369	0.0423
417.69	0.0415
418.011	0.0418
418.331	0.0416
418.652	0.0422
418.973	0.0419
419.293	0.0411
419.614	0.0421
419.934	0.0426
420.254	0.042
420.574	0.0426
420.895	0.0426
421.215	0.0417
421.535	0.0422
421.855	0.0421
422.174	0.042
422.494	0.0416
422.814	0.0419
423.134	0.0419
423.453	0.0424
423.773	0.0423
424.092	0.0421
424.411	0.0415
424.731	0.0425
425.05	0.0413
425.369	0.0425
425.688	0.0419
426.007	0.0416
426.326	0.0424
426.644	0.0421
426.963	0.043
427.282	0.0424
427.6	0.0424
427.919	0.0423
428.237	0.0422
428.556	0.0429
428.874	0.0421
429.192	0.0425
429.51	0.0428
429.828	0.042
430.146	0.0423
430.464	0.042
430.782	0.0425
431.1	0.0425
431.418	0.042
431.735	0.0421
432.053	0.0422
432.37	0.0425
432.688	0.0424
433.005	0.0426
433.322	0.0428
433.639	0.0426
433.957	0.0429
434.274	0.0431
434.591	0.0428
434.907	0.042
435.224	0.0428
435.541	0.0423
435.858	0.0435
436.174	0.0434
436.491	0.0418
436.807	0.0418
437.124	0.0419
437.44	0.0426
437.756	0.0418
438.072	0.0424
438.388	0.043
438.704	0.0419
439.02	0.0418
439.336	0.0418
439.652	0.0418
439.968	0.0414
440.283	0.0412
440.599	0.0413
440.914	0.0422
441.23	0.0426
441.545	0.0417
441.86	0.0412
442.175	0.0418
442.491	0.0412
442.806	0.0414
443.121	0.0416
443.435	0.0409
443.75	0.0412
444.065	0.0411
444.38	0.0416
444.694	0.0417
445.009	0.041
445.323	0.0408
445.638	0.0392
445.952	0.0409
446.266	0.0406
446.58	0.0407
446.894	0.0404
447.208	0.0405
447.522	0.0404
447.836	0.0404
448.15	0.0399
448.464	0.0397
448.777	0.04
449.091	0.0391
449.404	0.0398
449.718	0.0386
450.031	0.0391
450.345	0.0398
450.658	0.0392
450.971	0.0392
451.284	0.0393
451.597	0.039
451.91	0.0387
452.223	0.0381
452.535	0.0384
452.848	0.0389
453.161	0.038
453.473	0.0381
453.786	0.0378
454.098	0.0372
454.411	0.0387
454.723	0.0372
455.035	0.0367
455.347	0.0366
455.659	0.0367
455.971	0.0373
456.283	0.0364
456.595	0.0369
456.907	0.0368
457.218	0.0361
457.53	0.0351
457.841	0.0352
458.153	0.0356
458.464	0.0358
458.776	0.0364
459.087	0.0353
459.398	0.0355
459.709	0.035
460.02	0.0353
460.331	0.034
460.642	0.0346
460.953	0.0341
461.263	0.0337
461.574	0.0336
461.885	0.0336
462.195	0.033
462.506	0.0334
462.816	0.0326
463.126	0.0336
463.437	0.0332
463.747	0.032
464.057	0.0317
464.367	0.032
464.677	0.0315
464.987	0.0308
465.296	0.0314
465.606	0.0303
465.916	0.0309
466.225	0.031
466.535	0.031
466.844	0.0301
467.154	0.0306
467.463	0.0297
467.772	0.0307
468.081	0.0295
468.39	0.03
468.699	0.0292
469.008	0.0289
469.317	0.0288
469.626	0.0278
469.935	0.028
470.243	0.0276
470.552	0.0278
470.86	0.028
471.169	0.0276
471.477	0.0274
471.785	0.0283
472.093	0.0271
472.402	0.0266
472.71	0.0267
473.018	0.0257
473.326	0.0254
473.633	0.0262
473.941	0.0262
474.249	0.026
474.556	0.0254
474.864	0.0261
475.171	0.0245
475.479	0.0248
475.786	0.0242
476.094	0.0242
476.401	0.0237
476.708	0.0239
477.015	0.0239
477.322	0.0234
477.629	0.0226
477.936	0.0227
478.242	0.0218
478.549	0.023
478.856	0.0224
479.162	0.022
479.469	0.0219
479.775	0.0224
480.081	0.0219
480.388	0.0215
480.694	0.0207
481	0.0206
481.306	0.0201
481.612	0.0203
481.918	0.0207
482.224	0.0197
482.53	0.0195
482.835	0.0202
483.141	0.0193
483.446	0.0191
483.752	0.019
484.057	0.0185
484.363	0.0179
484.668	0.0182
484.973	0.0173
485.278	0.0179
485.583	0.0179
485.888	0.0177
486.193	0.0162
486.498	0.0171
486.803	0.0176
487.107	0.0167
487.412	0.0164
487.717	0.0162
488.021	0.0158
488.325	0.0169
488.63	0.0163
488.934	0.0164
489.238	0.0166
489.542	0.0151
489.846	0.0152
490.15	0.0154
490.454	0.0146
490.758	0.0138
491.062	0.0134
491.366	0.0137
491.669	0.0129
491.973	0.0137
492.276	0.0139
492.58	0.0134
492.883	0.0121
493.186	0.0133
493.489	0.0127
493.792	0.0117
494.096	0.0119
494.399	0.0126
494.701	0.0126
495.004	0.0107
495.307	0.0121
495.61	0.0113
495.912	0.0115
496.215	0.0098
496.517	0.0099
496.82	0.0107
497.122	0.0101
497.424	0.0104
497.727	0.0102
498.029	0.0095
498.331	0.0103
498.633	0.0099
498.935	0.0096
499.237	0.0094
499.538	0.0085
499.84	0.0088
500.142	0.008
500.443	0.008
500.745	0.0085
501.046	0.0074
501.348	0.0077
501.649	0.0075
501.95	0.007
502.251	0.0076
502.552	0.0082
502.853	0.0071
503.154	0.0071
503.455	0.0077
503.756	0.0069
504.057	0.0079
504.357	0.0057
504.658	0.0065
504.958	0.0067
505.259	0.0069
505.559	0.0059
505.859	0.006
506.16	0.0054
506.46	0.0061
506.76	0.006
507.06	0.0056
507.36	0.0056
507.66	0.0056
507.96	0.006
508.259	0.0051
508.559	0.0057
508.859	0.0055
509.158	0.005
509.457	0.005
509.757	0.0045
510.056	0.0052
510.355	0.0044
510.655	0.0046
510.954	0.0044
511.253	0.0048
511.552	0.0039
511.851	0.0039
512.149	0.0027
512.448	0.0036
512.747	0.004
513.045	0.0033
513.344	0.0028
513.642	0.0028
513.941	0.0032
514.239	0.0033
514.537	0.0021
514.836	0.0032
515.134	0.0016
515.432	0.0039
515.73	0.0036
516.028	0.002
516.326	0.0028
516.623	0.002
516.921	0.0007
517.219	0.0019
517.516	0.0027
517.814	0.0015
518.111	0.0022
518.409	0.0015
518.706	0.0016
519.003	0.0016
519.3	0.0021
519.597	0.0002
519.894	0.0019
520.191	0.0013
520.488	0.0012
520.785	0.0008
521.082	0.0012
521.378	0.0008
521.675	0.0012
521.971	-0.0001
522.268	0.0006
522.564	0.001
522.861	0.0013
523.157	0.0011
523.453	0.0014
523.749	0.0013
524.045	0.0016
524.341	0.0001
524.637	0.0009
524.933	0.001
525.229	0.001
525.524	0.0001
525.82	0.0002
526.115	-0.0002
526.411	0.0005
526.706	0.0003
527.002	0.0016
527.297	-0.0006
527.592	0.0007
527.887	0.0007
528.182	0.0004
528.477	0.0009
528.772	0.0008
529.067	0.0004
529.362	-0
529.657	-0.0001
529.951	0.0004
530.246	-0.0001
530.54	0.0002
530.835	-0.0005
531.129	-0.0008
531.423	-0.0003
531.718	-0.0007
532.012	-0.0003
532.306	0.0006
532.6	-0.001
532.894	-0.0008
533.188	-0.0006
533.482	-0.0001
533.775	0.0003
534.069	0.0003
534.363	-0.0013
534.656	-0.0008
534.95	0.0007
535.243	-0.0002
535.536	-0.0003
535.83	-0.0014
536.123	-0.0004
536.416	0.0004
536.709	0.0005
537.002	-0.0012
537.295	-0.0016
537.588	-0.0015
537.881	-0.0011
538.173	-0.0009
538.466	-0.0008
538.759	-0.0012
539.051	0
539.344	-0.0009
539.636	-0.0005
539.928	-0
540.22	0.0004
540.513	-0.001
540.805	-0.0001
541.097	-0.0005
541.389	-0.0011
541.681	0.0001
541.972	0.0004
542.264	0.0011
542.556	-0.0002
542.847	0.001
543.139	0.0008
543.431	-0.0004
543.722	0
544.013	0.0005
544.305	-0.0006
544.596	-0.0006
544.887	-0.0002
545.178	0.0004
545.469	-0.0009
545.76	-0.0004
546.051	0.0001
546.342	-0.0009
546.632	-0.0001
546.923	-0.0011
547.214	-0.0015
547.504	-0.0017
547.795	-0.0014
548.085	-0.0005
548.375	-0.0011
548.666	-0
548.956	-0.0006
549.246	-0.0018
549.536	-0.0004
549.826	-0.0006
550.116	-0.0009
550.406	-0.0004
550.695	-0.0017
550.985	-0.0008
551.275	-0.0016
551.564	-0.0012
551.854	-0.0004
552.143	-0.0013
552.433	-0.0025
552.722	-0.0027
553.011	-0.0006
553.3	-0.001
553.589	-0.0012
553.879	-0.0013
554.167	-0.0011
554.456	0.0007
554.745	-0.0003
555.034	-0.0001
555.323	-0.0003
555.611	-0.0006
555.9	-0.0002
556.188	-0.0021
556.477	-0.0005
556.765	-0.0024
557.053	-0.002
557.342	-0.0012
557.63	-0.0015
557.918	-0.0005
558.206	0.0001
558.494	-0.0004
558.782	-0.0005
559.069	0.0002
559.357	0.0002
559.645	-0.001
559.932	-0.0007
560.22	-0.0009
560.507	-0.0021
560.795	-0.0011
561.082	-0.002
561.37	-0.0012
561.657	-0.0013
561.944	-0.0007
562.231	-0.0007
562.518	-0.0004
562.805	-0.0004
563.092	0.0007
563.379	-0.0002
563.665	0.0004
563.952	-0
564.239	-0.0002
564.525	-0.0003
564.811	0.0007
565.098	-0.0001
565.384	-0.0003
565.67	0.0003
565.957	0.0005
566.243	0.0006
566.529	-0.0006
566.815	-0.0011
567.101	0.0006
567.387	-0.0004
567.672	-0.0008
567.958	0.0006
568.244	-0.0003
568.529	0.0003
568.815	-0.001
569.1	-0.0014
569.386	-0.0014
569.671	0.0001
569.956	-0.0015
570.242	-0.0001
570.527	-0.001
570.812	-0.0001
571.097	-0.0006
571.382	-0.0007
571.666	0
571.951	-0.0002
572.236	-0.0004
572.521	-0.0001
572.805	-0.0005
573.09	-0.0001
573.374	-0.0014
573.659	-0.0005
573.943	-0.0006
574.227	-0.001
574.511	-0.0009
574.795	0.0002
575.079	-0.0006
575.363	-0.0016
575.647	-0.0001
575.931	-0.0005
576.215	-0.0013
576.499	-0.002
576.782	-0.0014
577.066	-0.0006
577.349	0.0003
577.633	-0.0013
577.916	-0.0012
578.2	-0.0003
578.483	-0.0005
578.766	-0.0005
579.049	0.0001
579.332	0.0013
579.615	0.0003
579.898	-0.0007
580.181	0.001
580.464	0.0003
580.746	0.0004
581.029	-0
581.312	-0.0005
581.594	-0.0013
581.877	-0.0015
582.159	-0.0005
582.441	-0.001
582.724	-0.0002
583.006	0.0005
583.288	0
583.57	0.0012
583.852	0.0004
584.134	0.0007
584.416	-0.0004
584.697	0.0003
584.979	-0.0006
585.261	-0.0015
585.542	-0.0011
585.824	-0.0004
586.105	-0.0013
586.387	-0.0008
586.668	-0.0004
586.949	0.0001
587.231	-0
587.512	0.0005
587.793	-0
588.074	-0.0005
588.355	0.0007
588.636	-0.0004
588.916	0.0001
589.197	0.0006
589.478	-0.0008
589.758	0.0005
590.039	0
590.319	0.0009
590.6	0.0003
590.88	0.0002
591.16	0.0005
591.441	0.0003
591.721	-0.0005
592.001	-0.0008
592.281	-0.0005
592.561	0.0003
592.841	-0.0013
593.12	-0.0022
593.4	-0.0007
593.68	-0.002
593.959	-0.001
