Data from 03 0.5 mM K2Cr2O7 0.3 mM BQDS 1 M H2SO4 5 min_Absorbance_0129.txt Node
Date: Tue Dec 14 04:24:46 EST 2021
User: kwabilab-user
Spectrometer: HDX00518
Trigger mode: 0
Integration Time (sec): 5.000000E-2
Scans to average: 50
Nonlinearity correction enabled: false
Boxcar width: 0
Storing dark spectrum: false
XAxis mode: Wavelengths
Number of Pixels in Spectrum: 2068
>>>>>Begin Spectral Data<<<<<
195.27	-0.0984
195.642	0.0847
196.014	0.0559
196.386	0.0586
196.758	-0.0218
197.129	-0.0232
197.501	-0.0179
197.872	0.0111
198.244	0.0177
198.615	0.0523
198.986	0.0254
199.357	0.0335
199.728	0.0421
200.099	0.0259
200.47	0.017
200.841	0.0279
201.212	0.0257
201.582	0.0396
201.953	0.0224
202.323	0.0626
202.694	0.0304
203.064	0.0098
203.434	0.0313
203.804	0.0184
204.174	0.0277
204.544	0.0292
204.914	0.0314
205.284	0.0359
205.653	0.0222
206.023	0.0312
206.393	0.007
206.762	0.038
207.131	0.0422
207.501	0.0168
207.87	0.0365
208.239	0.0282
208.608	0.0182
208.977	0.02
209.346	0.0218
209.715	0.0135
210.083	0.0025
210.452	0.0308
210.82	0.0294
211.189	0.0076
211.557	0.0437
211.925	0.0183
212.294	0.0279
212.662	0.0395
213.03	0.0258
213.398	0.0399
213.766	0.0557
214.133	0.04
214.501	0.0452
214.869	0.024
215.236	0.0142
215.604	0.0201
215.971	0.0493
216.338	0.0481
216.705	0.0581
217.072	0.0432
217.439	0.0399
217.806	0.0496
218.173	0.0557
218.54	0.0524
218.907	0.0547
219.273	0.0722
219.64	0.0677
220.006	0.0825
220.373	0.084
220.739	0.1061
221.105	0.118
221.471	0.1521
221.837	0.158
222.203	0.1763
222.569	0.1795
222.935	0.2078
223.3	0.2018
223.666	0.2349
224.031	0.2568
224.397	0.2612
224.762	0.304
225.127	0.3417
225.493	0.3473
225.858	0.3738
226.223	0.3849
226.588	0.4273
226.952	0.4381
227.317	0.4569
227.682	0.4577
228.046	0.4741
228.411	0.513
228.775	0.5333
229.14	0.5413
229.504	0.5411
229.868	0.5586
230.232	0.5685
230.596	0.5789
230.96	0.6013
231.324	0.6109
231.688	0.6083
232.052	0.6323
232.415	0.6333
232.779	0.635
233.142	0.6495
233.505	0.6395
233.869	0.661
234.232	0.6433
234.595	0.6554
234.958	0.6625
235.321	0.6627
235.684	0.6597
236.047	0.6635
236.409	0.6443
236.772	0.6609
237.134	0.668
237.497	0.6543
237.859	0.6595
238.222	0.6619
238.584	0.656
238.946	0.653
239.308	0.6632
239.67	0.654
240.032	0.6478
240.393	0.6531
240.755	0.6419
241.117	0.6489
241.478	0.6515
241.84	0.6493
242.201	0.6322
242.562	0.6279
242.924	0.6355
243.285	0.6314
243.646	0.6448
244.007	0.6273
244.368	0.6328
244.728	0.6241
245.089	0.6324
245.45	0.6233
245.81	0.6212
246.171	0.6209
246.531	0.6211
246.891	0.6117
247.252	0.6237
247.612	0.6147
247.972	0.6184
248.332	0.6175
248.692	0.6167
249.051	0.6116
249.411	0.6205
249.771	0.6104
250.13	0.6123
250.49	0.6073
250.849	0.6079
251.208	0.6151
251.568	0.6033
251.927	0.6104
252.286	0.6116
252.645	0.6079
253.004	0.6162
253.363	0.6019
253.721	0.613
254.08	0.6094
254.439	0.6085
254.797	0.6019
255.155	0.5982
255.514	0.6022
255.872	0.6064
256.23	0.5978
256.588	0.5986
256.946	0.5976
257.304	0.5985
257.662	0.5977
258.02	0.5959
258.377	0.596
258.735	0.5958
259.093	0.5955
259.45	0.588
259.807	0.5895
260.165	0.5911
260.522	0.5859
260.879	0.5857
261.236	0.5835
261.593	0.5801
261.95	0.5769
262.306	0.5749
262.663	0.5718
263.02	0.5727
263.376	0.5685
263.733	0.5702
264.089	0.5634
264.445	0.5591
264.802	0.5625
265.158	0.561
265.514	0.5534
265.87	0.5499
266.226	0.5536
266.581	0.5537
266.937	0.5464
267.293	0.5514
267.648	0.5424
268.004	0.5337
268.359	0.5339
268.714	0.5338
269.07	0.5358
269.425	0.5235
269.78	0.5268
270.135	0.5255
270.49	0.5194
270.844	0.5165
271.199	0.5085
271.554	0.5056
271.908	0.5043
272.263	0.5073
272.617	0.4997
272.972	0.5019
273.326	0.495
273.68	0.4886
274.034	0.4893
274.388	0.4823
274.742	0.4796
275.096	0.478
275.45	0.4727
275.803	0.4721
276.157	0.4676
276.51	0.4619
276.864	0.4577
277.217	0.4555
277.571	0.451
277.924	0.4489
278.277	0.4463
278.63	0.435
278.983	0.4362
279.336	0.4307
279.688	0.4276
280.041	0.4217
280.394	0.4197
280.746	0.4144
281.099	0.4118
281.451	0.4045
281.803	0.3976
282.156	0.3982
282.508	0.397
282.86	0.3911
283.212	0.3843
283.564	0.3799
283.916	0.3757
284.267	0.3724
284.619	0.367
284.971	0.3662
285.322	0.3603
285.673	0.3553
286.025	0.3528
286.376	0.3491
286.727	0.3445
287.078	0.3402
287.429	0.3368
287.78	0.3341
288.131	0.3288
288.482	0.3257
288.833	0.3191
289.183	0.314
289.534	0.3097
289.884	0.3079
290.235	0.3028
290.585	0.2997
290.935	0.2951
291.285	0.2905
291.635	0.2883
291.985	0.2836
292.335	0.2783
292.685	0.2782
293.035	0.2733
293.384	0.2669
293.734	0.2651
294.083	0.2609
294.433	0.2573
294.782	0.2543
295.131	0.248
295.48	0.2445
295.829	0.2415
296.179	0.24
296.527	0.235
296.876	0.233
297.225	0.2271
297.574	0.2236
297.922	0.2221
298.271	0.218
298.619	0.2142
298.968	0.2119
299.316	0.2076
299.664	0.2057
300.012	0.2034
300.36	0.2
300.708	0.1971
301.056	0.1946
301.404	0.1911
301.752	0.191
302.099	0.1847
302.447	0.1838
302.794	0.1821
303.142	0.179
303.489	0.1762
303.836	0.1746
304.183	0.1724
304.531	0.1711
304.878	0.1697
305.224	0.1673
305.571	0.1658
305.918	0.1641
306.265	0.1625
306.611	0.1599
306.958	0.1598
307.304	0.1579
307.651	0.1573
307.997	0.1558
308.343	0.155
308.689	0.1535
309.035	0.1529
309.381	0.1517
309.727	0.1503
310.073	0.1505
310.419	0.1495
310.764	0.1483
311.11	0.1479
311.455	0.1482
311.801	0.1478
312.146	0.1473
312.491	0.1468
312.837	0.1459
313.182	0.1454
313.527	0.147
313.872	0.146
314.216	0.1465
314.561	0.1463
314.906	0.1469
315.251	0.1469
315.595	0.1471
315.94	0.148
316.284	0.1484
316.628	0.1489
316.972	0.1498
317.317	0.1502
317.661	0.1506
318.005	0.1512
318.348	0.1525
318.692	0.1523
319.036	0.1532
319.38	0.1536
319.723	0.1555
320.067	0.1565
320.41	0.1579
320.754	0.1586
321.097	0.1601
321.44	0.1607
321.783	0.1623
322.126	0.1638
322.469	0.1644
322.812	0.1659
323.155	0.1673
323.498	0.1684
323.84	0.1704
324.183	0.1715
324.525	0.1735
324.868	0.1748
325.21	0.1756
325.552	0.1785
325.894	0.1789
326.236	0.1805
326.578	0.1822
326.92	0.1838
327.262	0.1852
327.604	0.1878
327.946	0.1889
328.287	0.1911
328.629	0.1924
328.97	0.193
329.312	0.1958
329.653	0.1972
329.994	0.1992
330.335	0.2001
330.676	0.2029
331.017	0.204
331.358	0.2065
331.699	0.2083
332.04	0.2094
332.38	0.2114
332.721	0.212
333.061	0.2151
333.402	0.2173
333.742	0.2188
334.083	0.2206
334.423	0.221
334.763	0.224
335.103	0.2243
335.443	0.2259
335.783	0.2272
336.123	0.2283
336.462	0.23
336.802	0.233
337.141	0.2337
337.481	0.2349
337.82	0.2358
338.16	0.2375
338.499	0.2398
338.838	0.2405
339.177	0.2429
339.516	0.2433
339.855	0.2446
340.194	0.2462
340.533	0.2475
340.872	0.2481
341.21	0.2494
341.549	0.2501
341.887	0.2512
342.226	0.2521
342.564	0.2531
342.902	0.2537
343.24	0.2548
343.578	0.2551
343.916	0.2562
344.254	0.2561
344.592	0.2564
344.93	0.2566
345.268	0.2572
345.605	0.2567
345.943	0.2582
346.28	0.2579
346.618	0.2576
346.955	0.2584
347.292	0.2584
347.629	0.2594
347.966	0.2598
348.303	0.2602
348.64	0.2602
348.977	0.2601
349.314	0.2615
349.65	0.2601
349.987	0.2601
350.324	0.2612
350.66	0.2603
350.996	0.2598
351.333	0.2594
351.669	0.26
352.005	0.2581
352.341	0.2577
352.677	0.2568
353.013	0.2556
353.349	0.2551
353.685	0.254
354.02	0.2522
354.356	0.2512
354.691	0.2505
355.027	0.2493
355.362	0.2491
355.697	0.2478
356.033	0.2475
356.368	0.2453
356.703	0.2454
357.038	0.2442
357.373	0.2422
357.707	0.2425
358.042	0.2411
358.377	0.2406
358.711	0.239
359.046	0.238
359.38	0.2373
359.715	0.2364
360.049	0.2348
360.383	0.2336
360.717	0.233
361.051	0.231
361.385	0.2295
361.719	0.2269
362.053	0.2262
362.387	0.224
362.72	0.2212
363.054	0.22
363.387	0.2191
363.721	0.2169
364.054	0.2143
364.387	0.2135
364.721	0.2113
365.054	0.2092
365.387	0.2082
365.72	0.2056
366.053	0.2043
366.385	0.2018
366.718	0.2011
367.051	0.1995
367.383	0.1979
367.716	0.196
368.048	0.1954
368.381	0.1931
368.713	0.1922
369.045	0.1915
369.377	0.1881
369.709	0.188
370.041	0.1869
370.373	0.1847
370.705	0.1824
371.037	0.1808
371.368	0.1802
371.7	0.1795
372.031	0.1766
372.363	0.174
372.694	0.172
373.025	0.1698
373.356	0.1679
373.688	0.1664
374.019	0.1637
374.35	0.1617
374.68	0.1599
375.011	0.1581
375.342	0.155
375.673	0.1541
376.003	0.1513
376.334	0.1497
376.664	0.1481
376.995	0.1467
377.325	0.1442
377.655	0.1429
377.985	0.1415
378.315	0.1397
378.645	0.1382
378.975	0.1369
379.305	0.1351
379.635	0.1355
379.964	0.1334
380.294	0.1314
380.623	0.1309
380.953	0.1293
381.282	0.1274
381.611	0.1258
381.941	0.1243
382.27	0.1225
382.599	0.1216
382.928	0.1197
383.257	0.118
383.585	0.1163
383.914	0.116
384.243	0.1136
384.571	0.1114
384.9	0.1092
385.228	0.1078
385.557	0.1063
385.885	0.1044
386.213	0.1028
386.541	0.1013
386.869	0.0994
387.197	0.0976
387.525	0.0961
387.853	0.0944
388.181	0.0928
388.508	0.0913
388.836	0.0901
389.164	0.088
389.491	0.0879
389.818	0.0854
390.146	0.0846
390.473	0.0835
390.8	0.082
391.127	0.0804
391.454	0.0792
391.781	0.0786
392.108	0.0781
392.435	0.0762
392.761	0.075
393.088	0.0748
393.415	0.0736
393.741	0.0731
394.067	0.0719
394.394	0.0707
394.72	0.0697
395.046	0.0693
395.372	0.0689
395.698	0.0679
396.024	0.0668
396.35	0.0656
396.676	0.0639
397.001	0.0631
397.327	0.0626
397.653	0.0617
397.978	0.0603
398.303	0.0597
398.629	0.0579
398.954	0.0571
399.279	0.0562
399.604	0.0557
399.929	0.0554
400.254	0.0545
400.579	0.0542
400.904	0.0531
401.229	0.0522
401.553	0.0522
401.878	0.0517
402.202	0.0503
402.527	0.0499
402.851	0.0499
403.175	0.0486
403.5	0.0486
403.824	0.048
404.148	0.0475
404.472	0.0474
404.796	0.0467
405.119	0.0464
405.443	0.046
405.767	0.0448
406.09	0.0457
406.414	0.0447
406.737	0.0445
407.061	0.0446
407.384	0.0439
407.707	0.0439
408.03	0.0431
408.353	0.0439
408.676	0.0433
408.999	0.0431
409.322	0.0425
409.645	0.0426
409.968	0.0425
410.29	0.0422
410.613	0.0423
410.935	0.0428
411.258	0.0425
411.58	0.0414
411.902	0.0421
412.224	0.0417
412.546	0.0418
412.868	0.0415
413.19	0.0416
413.512	0.0411
413.834	0.0405
414.156	0.0414
414.477	0.0412
414.799	0.0407
415.121	0.0414
415.442	0.0412
415.763	0.0408
416.085	0.0413
416.406	0.0412
416.727	0.0416
417.048	0.0409
417.369	0.0413
417.69	0.0405
418.011	0.0401
418.331	0.0409
418.652	0.0411
418.973	0.041
419.293	0.0413
419.614	0.0411
419.934	0.0415
420.254	0.041
420.574	0.0414
420.895	0.0412
421.215	0.0407
421.535	0.0409
421.855	0.0406
422.174	0.0409
422.494	0.0404
422.814	0.0406
423.134	0.0407
423.453	0.0412
423.773	0.0412
424.092	0.0412
424.411	0.0406
424.731	0.0419
425.05	0.0403
425.369	0.0403
425.688	0.0412
426.007	0.0406
426.326	0.041
426.644	0.0414
426.963	0.0414
427.282	0.0408
427.6	0.0412
427.919	0.0408
428.237	0.041
428.556	0.0413
428.874	0.0414
429.192	0.0417
429.51	0.042
429.828	0.0415
430.146	0.0416
430.464	0.0408
430.782	0.0413
431.1	0.0418
431.418	0.0407
431.735	0.0409
432.053	0.0417
432.37	0.0409
432.688	0.0413
433.005	0.041
433.322	0.0416
433.639	0.0417
433.957	0.0417
434.274	0.0417
434.591	0.0413
434.907	0.041
435.224	0.0412
435.541	0.0416
435.858	0.042
436.174	0.042
436.491	0.0415
436.807	0.0406
437.124	0.0407
437.44	0.0416
437.756	0.0418
438.072	0.0419
438.388	0.0414
438.704	0.0412
439.02	0.0413
439.336	0.0412
439.652	0.0404
439.968	0.0407
440.283	0.0402
440.599	0.0395
440.914	0.0411
441.23	0.0411
441.545	0.0405
441.86	0.0403
442.175	0.0407
442.491	0.041
442.806	0.0403
443.121	0.0403
443.435	0.0405
443.75	0.0402
444.065	0.0398
444.38	0.0403
444.694	0.04
445.009	0.0406
445.323	0.0397
445.638	0.0393
445.952	0.0403
446.266	0.0403
446.58	0.0398
446.894	0.0392
447.208	0.0392
447.522	0.0394
447.836	0.0396
448.15	0.0385
448.464	0.0398
448.777	0.0385
449.091	0.0381
449.404	0.0385
449.718	0.0381
450.031	0.0382
450.345	0.0384
450.658	0.0391
450.971	0.0386
451.284	0.0378
451.597	0.0375
451.91	0.0372
452.223	0.0376
452.535	0.0367
452.848	0.038
453.161	0.0368
453.473	0.0366
453.786	0.0371
454.098	0.0367
454.411	0.0367
454.723	0.0364
455.035	0.0357
455.347	0.036
455.659	0.0357
455.971	0.036
456.283	0.0358
456.595	0.0358
456.907	0.0357
457.218	0.0357
457.53	0.0345
457.841	0.0347
458.153	0.0353
458.464	0.0347
458.776	0.0351
459.087	0.034
459.398	0.0345
459.709	0.0344
460.02	0.0343
460.331	0.0324
460.642	0.0335
460.953	0.0328
461.263	0.0325
461.574	0.0325
461.885	0.0326
462.195	0.0321
462.506	0.0326
462.816	0.0322
463.126	0.0324
463.437	0.032
463.747	0.0314
464.057	0.0314
464.367	0.0313
464.677	0.0302
464.987	0.0306
465.296	0.0309
465.606	0.0295
465.916	0.03
466.225	0.0297
466.535	0.0303
466.844	0.0302
467.154	0.0298
467.463	0.029
467.772	0.0293
468.081	0.0288
468.39	0.0286
468.699	0.0287
469.008	0.0282
469.317	0.0267
469.626	0.0268
469.935	0.0266
470.243	0.0263
470.552	0.0271
470.86	0.0268
471.169	0.0272
471.477	0.0268
471.785	0.0267
472.093	0.0265
472.402	0.0253
472.71	0.0261
473.018	0.0254
473.326	0.0248
473.633	0.0258
473.941	0.0252
474.249	0.0245
474.556	0.0247
474.864	0.0255
475.171	0.0242
475.479	0.0234
475.786	0.0237
476.094	0.0235
476.401	0.0235
476.708	0.0233
477.015	0.0226
477.322	0.0218
477.629	0.0226
477.936	0.023
478.242	0.0212
478.549	0.0218
478.856	0.0217
479.162	0.0205
479.469	0.0205
479.775	0.0214
480.081	0.0211
480.388	0.0203
480.694	0.0209
481	0.0198
481.306	0.0197
481.612	0.0204
481.918	0.0188
482.224	0.019
482.53	0.0193
482.835	0.0196
483.141	0.0184
483.446	0.0184
483.752	0.0182
484.057	0.0177
484.363	0.018
484.668	0.0179
484.973	0.0166
485.278	0.0172
485.583	0.0164
485.888	0.0167
486.193	0.0158
486.498	0.0153
486.803	0.0153
487.107	0.0158
487.412	0.015
487.717	0.0155
488.021	0.0143
488.325	0.0162
488.63	0.0155
488.934	0.0152
489.238	0.0158
489.542	0.0137
489.846	0.0147
490.15	0.0149
490.454	0.0139
490.758	0.0134
491.062	0.0132
491.366	0.0139
491.669	0.0129
491.973	0.0139
492.276	0.0129
492.58	0.0133
492.883	0.0122
493.186	0.0126
493.489	0.0113
493.792	0.0114
494.096	0.0113
494.399	0.0115
494.701	0.0122
495.004	0.01
495.307	0.0112
495.61	0.0104
495.912	0.0109
496.215	0.0094
496.517	0.0107
496.82	0.0108
497.122	0.0093
497.424	0.0103
497.727	0.0101
498.029	0.0085
498.331	0.0087
498.633	0.0095
498.935	0.0096
499.237	0.0086
499.538	0.0084
499.84	0.0079
500.142	0.0082
500.443	0.0078
500.745	0.0077
501.046	0.0071
501.348	0.0069
501.649	0.0068
501.95	0.0067
502.251	0.0068
502.552	0.0069
502.853	0.0058
503.154	0.006
503.455	0.0064
503.756	0.0072
504.057	0.0066
504.357	0.0053
504.658	0.0062
504.958	0.0065
505.259	0.006
505.559	0.0051
505.859	0.0044
506.16	0.0053
506.46	0.0054
506.76	0.0061
507.06	0.0053
507.36	0.0046
507.66	0.0047
507.96	0.0055
508.259	0.0045
508.559	0.0051
508.859	0.0046
509.158	0.0046
509.457	0.0041
509.757	0.0043
510.056	0.0037
510.355	0.0047
510.655	0.0033
510.954	0.0041
511.253	0.0035
511.552	0.0037
511.851	0.0039
512.149	0.0023
512.448	0.0036
512.747	0.0029
513.045	0.0022
513.344	0.0023
513.642	0.0022
513.941	0.0021
514.239	0.0025
514.537	0.002
514.836	0.0029
515.134	0.0009
515.432	0.0032
515.73	0.0025
516.028	0.002
516.326	0.0027
516.623	0.003
516.921	0
517.219	0.0012
517.516	0.0019
517.814	0.0012
518.111	0.0021
518.409	0.0011
518.706	0.0013
519.003	0.0011
519.3	0.0009
519.597	0.0007
519.894	0.0016
520.191	0.0003
520.488	0.0011
520.785	0.0004
521.082	0.0004
521.378	0.0002
521.675	0.0005
521.971	-0.0001
522.268	0.0015
522.564	0.0013
522.861	0.0014
523.157	0.0011
523.453	0.001
523.749	0.0015
524.045	0.0007
524.341	0.0017
524.637	-0.0006
524.933	0.0005
525.229	0.0004
525.524	-0.0005
525.82	-0.0007
526.115	-0.0005
526.411	0.0001
526.706	0.0007
527.002	0.0008
527.297	-0.001
527.592	0.0004
527.887	0.0011
528.182	0.0005
528.477	0.0012
528.772	-0.0001
529.067	0.0002
529.362	0.0007
529.657	-0
529.951	0.0001
530.246	-0.001
530.54	-0.0004
530.835	-0.0013
531.129	-0.0003
531.423	-0.0008
531.718	0.0002
532.012	-0.001
532.306	-0.0005
532.6	-0.0015
532.894	0.0005
533.188	-0.0001
533.482	-0.0008
533.775	-0.0008
534.069	-0.0013
534.363	-0.0011
534.656	-0.0013
534.95	-0.0002
535.243	-0.0017
535.536	-0.0009
535.83	-0.002
536.123	-0.0004
536.416	-0.0006
536.709	-0.0003
537.002	-0.0011
537.295	-0.001
537.588	-0.0014
537.881	-0.0013
538.173	-0.0014
538.466	-0.0011
538.759	-0.0009
539.051	-0.0005
539.344	-0.002
539.636	-0.0013
539.928	-0.0004
540.22	-0.0004
540.513	-0.0006
540.805	0.0001
541.097	-0.0012
541.389	-0.0009
541.681	-0.0006
541.972	0.0006
542.264	0.0001
542.556	-0.0001
542.847	0.0006
543.139	0.0008
543.431	-0.0008
543.722	0.0003
544.013	0.0003
544.305	-0.0009
544.596	-0.0011
544.887	-0.0009
545.178	-0.0009
545.469	-0.0017
545.76	-0.0008
546.051	-0.0003
546.342	-0.0018
546.632	-0.0016
546.923	-0.0009
547.214	-0.0011
547.504	-0.0015
547.795	-0.001
548.085	-0.0017
548.375	-0.001
548.666	-0.0017
548.956	-0.0011
549.246	-0.0012
549.536	-0.0008
549.826	-0.0008
550.116	-0.0002
550.406	-0.0012
550.695	-0.0027
550.985	0.0002
551.275	-0.0016
551.564	-0.0001
551.854	0.0009
552.143	-0.0011
552.433	-0.0021
552.722	-0.0028
553.011	-0.0006
553.3	0
553.589	-0.0001
553.879	0.0005
554.167	-0.0003
554.456	0
554.745	-0.0002
555.034	-0.001
555.323	0.0004
555.611	-0.0006
555.9	-0.0006
556.188	-0.0015
556.477	-0.0002
556.765	-0.0028
557.053	-0.0015
557.342	-0.0007
557.63	-0.0005
557.918	-0.0009
558.206	0.0008
558.494	-0.0005
558.782	-0
559.069	0.0018
559.357	0.001
559.645	0.0001
559.932	0.0002
560.22	-0.0004
560.507	-0.0013
560.795	-0.0012
561.082	-0.0024
561.37	-0.0004
561.657	-0.0015
561.944	-0.0015
562.231	-0.0004
562.518	-0.0002
562.805	-0.0004
563.092	-0.0004
563.379	-0.0005
563.665	0.0004
563.952	-0.0001
564.239	0.0007
564.525	0.0001
564.811	0.0012
565.098	-0.0006
565.384	-0.0006
565.67	0.0007
565.957	0.0005
566.243	0.0016
566.529	0.0001
566.815	0.0001
567.101	0.0014
567.387	0.0007
567.672	0.0001
567.958	0.0012
568.244	-0.0004
568.529	0.0002
568.815	0
569.1	-0.0002
569.386	-0.0009
569.671	0.0002
569.956	-0.0004
570.242	-0.0001
570.527	-0.0005
570.812	-0.0001
571.097	-0.0003
571.382	-0.0007
571.666	0.0003
571.951	-0.0009
572.236	-0.0002
572.521	-0.0004
572.805	-0.0005
573.09	-0.0004
573.374	-0.0008
573.659	-0.0002
573.943	-0.0007
574.227	-0.0009
574.511	-0.001
574.795	-0.0008
575.079	-0.0003
575.363	-0.0017
575.647	-0.0012
575.931	0.0001
576.215	-0.0014
576.499	-0.0008
576.782	-0.0009
577.066	-0.0004
577.349	0.0004
577.633	-0.0011
577.916	-0.0006
578.2	-0.0009
578.483	-0.0009
578.766	-0.0008
579.049	-0.0003
579.332	0.0009
579.615	0.0004
579.898	-0.0002
580.181	-0.0005
580.464	0.0015
580.746	0.0002
581.029	-0.0001
581.312	-0.0007
581.594	-0.0012
581.877	-0.0016
582.159	-0.0015
582.441	-0.0016
582.724	-0.0009
583.006	0.0001
583.288	-0
583.57	0.0003
583.852	0.0001
584.134	0.001
584.416	-0.0003
584.697	-0.0004
584.979	-0.0016
585.261	-0.0019
585.542	-0.0016
585.824	-0.0014
586.105	-0.0013
586.387	-0.0018
586.668	-0.0003
586.949	-0.0004
587.231	-0.0001
587.512	-0.0001
587.793	-0.0003
588.074	-0.0009
588.355	0.0001
588.636	-0.0008
588.916	-0.0011
589.197	-0.0007
589.478	-0.0004
589.758	-0.0001
590.039	-0.0003
590.319	0.001
590.6	0.0011
590.88	0.0005
591.16	0.0006
591.441	0.0007
591.721	-0
592.001	-0.0005
592.281	-0.0004
592.561	0
592.841	-0.0007
593.12	-0.0021
593.4	-0.0018
593.68	-0.0026
593.959	-0.0021
594.239	-0.0024
