Data from 03 0.5 mM K2Cr2O7 0.3 mM BQDS 1 M H2SO4 5 min_Absorbance_0178.txt Node
Date: Tue Dec 14 08:29:45 EST 2021
User: kwabilab-user
Spectrometer: HDX00518
Trigger mode: 0
Integration Time (sec): 5.000000E-2
Scans to average: 50
Nonlinearity correction enabled: false
Boxcar width: 0
Storing dark spectrum: false
XAxis mode: Wavelengths
Number of Pixels in Spectrum: 2068
>>>>>Begin Spectral Data<<<<<
195.27	0.0896
195.642	0.6198
196.014	0.1249
196.386	0.2804
196.758	-0.0025
197.129	0.0097
197.501	0.0235
197.872	0.0355
198.244	0.0387
198.615	0.0644
198.986	0.0406
199.357	0.0623
199.728	0.0519
200.099	0.0493
200.47	0.0349
200.841	0.0575
201.212	0.055
201.582	0.0792
201.953	0.0682
202.323	0.0636
202.694	0.0531
203.064	0.0405
203.434	0.0761
203.804	0.0452
204.174	0.0522
204.544	0.0583
204.914	0.0494
205.284	0.0522
205.653	0.0335
206.023	0.066
206.393	0.0454
206.762	0.0654
207.131	0.0709
207.501	0.0459
207.87	0.051
208.239	0.0779
208.608	0.0705
208.977	0.0409
209.346	0.0634
209.715	0.0685
210.083	0.0479
210.452	0.0442
210.82	0.07
211.189	0.0651
211.557	0.0735
211.925	0.0309
212.294	0.0578
212.662	0.0806
213.03	0.0413
213.398	0.0627
213.766	0.0596
214.133	0.0651
214.501	0.0671
214.869	0.0793
215.236	0.0529
215.604	0.0539
215.971	0.065
216.338	0.093
216.705	0.0892
217.072	0.1132
217.439	0.0676
217.806	0.1023
218.173	0.0728
218.54	0.0889
218.907	0.0786
219.273	0.101
219.64	0.1004
220.006	0.1269
220.373	0.1206
220.739	0.133
221.105	0.159
221.471	0.1773
221.837	0.1671
222.203	0.1941
222.569	0.224
222.935	0.2394
223.3	0.2576
223.666	0.2844
224.031	0.2887
224.397	0.3075
224.762	0.3286
225.127	0.3709
225.493	0.3776
225.858	0.4082
226.223	0.4179
226.588	0.4564
226.952	0.4747
227.317	0.4838
227.682	0.5054
228.046	0.512
228.411	0.5399
228.775	0.5471
229.14	0.5691
229.504	0.58
229.868	0.59
230.232	0.5749
230.596	0.5995
230.96	0.6319
231.324	0.625
231.688	0.6305
232.052	0.6605
232.415	0.666
232.779	0.6618
233.142	0.6662
233.505	0.6604
233.869	0.6876
234.232	0.6652
234.595	0.6698
234.958	0.6814
235.321	0.6765
235.684	0.682
236.047	0.6733
236.409	0.6649
236.772	0.6802
237.134	0.6693
237.497	0.6725
237.859	0.6783
238.222	0.6715
238.584	0.659
238.946	0.653
239.308	0.6553
239.67	0.6619
240.032	0.6495
240.393	0.6516
240.755	0.6436
241.117	0.6509
241.478	0.6422
241.84	0.6364
242.201	0.6401
242.562	0.6318
242.924	0.6315
243.285	0.6243
243.646	0.6261
244.007	0.6305
244.368	0.6288
244.728	0.623
245.089	0.6222
245.45	0.623
245.81	0.6139
246.171	0.615
246.531	0.6081
246.891	0.6065
247.252	0.6047
247.612	0.6004
247.972	0.6043
248.332	0.6123
248.692	0.6025
249.051	0.6056
249.411	0.6114
249.771	0.5997
250.13	0.5917
250.49	0.5915
250.849	0.5936
251.208	0.5987
251.568	0.5944
251.927	0.5887
252.286	0.5988
252.645	0.5911
253.004	0.5919
253.363	0.5884
253.721	0.589
254.08	0.5904
254.439	0.5861
254.797	0.5844
255.155	0.5842
255.514	0.5824
255.872	0.5842
256.23	0.5802
256.588	0.5825
256.946	0.5788
257.304	0.5769
257.662	0.5789
258.02	0.5772
258.377	0.576
258.735	0.5728
259.093	0.5708
259.45	0.5747
259.807	0.566
260.165	0.567
260.522	0.5714
260.879	0.5636
261.236	0.5661
261.593	0.5622
261.95	0.554
262.306	0.5572
262.663	0.5494
263.02	0.5522
263.376	0.548
263.733	0.5457
264.089	0.5414
264.445	0.5431
264.802	0.54
265.158	0.5413
265.514	0.5364
265.87	0.5282
266.226	0.5303
266.581	0.5304
266.937	0.5233
267.293	0.5233
267.648	0.5182
268.004	0.5177
268.359	0.5101
268.714	0.508
269.07	0.5051
269.425	0.5042
269.78	0.4978
270.135	0.5015
270.49	0.4963
270.844	0.4948
271.199	0.4936
271.554	0.4879
271.908	0.4792
272.263	0.4807
272.617	0.475
272.972	0.4759
273.326	0.4714
273.68	0.4696
274.034	0.4645
274.388	0.4625
274.742	0.4599
275.096	0.4578
275.45	0.4505
275.803	0.4462
276.157	0.4417
276.51	0.4366
276.864	0.4385
277.217	0.431
277.571	0.4305
277.924	0.4256
278.277	0.4221
278.63	0.4191
278.983	0.412
279.336	0.4117
279.688	0.4058
280.041	0.4044
280.394	0.4019
280.746	0.3951
281.099	0.3907
281.451	0.3879
281.803	0.3822
282.156	0.3776
282.508	0.3731
282.86	0.3686
283.212	0.3664
283.564	0.363
283.916	0.3576
284.267	0.3526
284.619	0.3484
284.971	0.3457
285.322	0.3414
285.673	0.3375
286.025	0.3329
286.376	0.3287
286.727	0.3269
287.078	0.3231
287.429	0.3192
287.78	0.3143
288.131	0.311
288.482	0.3049
288.833	0.3012
289.183	0.2979
289.534	0.2932
289.884	0.2904
290.235	0.2858
290.585	0.2821
290.935	0.2778
291.285	0.2723
291.635	0.2703
291.985	0.2676
292.335	0.2643
292.685	0.2619
293.035	0.2565
293.384	0.2535
293.734	0.2502
294.083	0.244
294.433	0.241
294.782	0.2368
295.131	0.2353
295.48	0.2292
295.829	0.2268
296.179	0.2222
296.527	0.2205
296.876	0.2159
297.225	0.2127
297.574	0.2098
297.922	0.2082
298.271	0.2049
298.619	0.201
298.968	0.1977
299.316	0.1943
299.664	0.1923
300.012	0.1893
300.36	0.1869
300.708	0.1832
301.056	0.1808
301.404	0.1781
301.752	0.1775
302.099	0.1736
302.447	0.1712
302.794	0.1696
303.142	0.1679
303.489	0.1646
303.836	0.1638
304.183	0.1614
304.531	0.1601
304.878	0.1573
305.224	0.1564
305.571	0.1543
305.918	0.153
306.265	0.1529
306.611	0.1512
306.958	0.1492
307.304	0.147
307.651	0.1462
307.997	0.145
308.343	0.1444
308.689	0.1434
309.035	0.1421
309.381	0.1417
309.727	0.1413
310.073	0.1411
310.419	0.1403
310.764	0.1392
311.11	0.1388
311.455	0.1384
311.801	0.1383
312.146	0.1377
312.491	0.1376
312.837	0.1367
313.182	0.1376
313.527	0.1363
313.872	0.1377
314.216	0.1368
314.561	0.1374
314.906	0.137
315.251	0.1385
315.595	0.1383
315.94	0.139
316.284	0.1394
316.628	0.1396
316.972	0.1407
317.317	0.1413
317.661	0.1412
318.005	0.1419
318.348	0.1435
318.692	0.1441
319.036	0.1442
319.38	0.1454
319.723	0.1458
320.067	0.148
320.41	0.1479
320.754	0.1494
321.097	0.1505
321.44	0.1513
321.783	0.1523
322.126	0.155
322.469	0.1548
322.812	0.1561
323.155	0.1577
323.498	0.1594
323.84	0.1606
324.183	0.1621
324.525	0.164
324.868	0.1651
325.21	0.1658
325.552	0.1681
325.894	0.1696
326.236	0.1705
326.578	0.1723
326.92	0.1737
327.262	0.1756
327.604	0.1773
327.946	0.1783
328.287	0.1799
328.629	0.1819
328.97	0.1834
329.312	0.185
329.653	0.1865
329.994	0.1884
330.335	0.1895
330.676	0.192
331.017	0.1934
331.358	0.1958
331.699	0.1972
332.04	0.199
332.38	0.2006
332.721	0.2016
333.061	0.2046
333.402	0.2069
333.742	0.2077
334.083	0.2095
334.423	0.21
334.763	0.2123
335.103	0.2136
335.443	0.2153
335.783	0.2163
336.123	0.2179
336.462	0.2195
336.802	0.2222
337.141	0.2217
337.481	0.223
337.82	0.2254
338.16	0.2255
338.499	0.228
338.838	0.229
339.177	0.2313
339.516	0.2322
339.855	0.2331
340.194	0.2339
340.533	0.2352
340.872	0.2368
341.21	0.2378
341.549	0.2385
341.887	0.2392
342.226	0.2404
342.564	0.2411
342.902	0.2425
343.24	0.2425
343.578	0.2426
343.916	0.2442
344.254	0.2446
344.592	0.2439
344.93	0.2455
345.268	0.2449
345.605	0.2459
345.943	0.2462
346.28	0.2469
346.618	0.2466
346.955	0.2473
347.292	0.2476
347.629	0.2477
347.966	0.2471
348.303	0.2478
348.64	0.2484
348.977	0.2486
349.314	0.2489
349.65	0.2488
349.987	0.2494
350.324	0.2503
350.66	0.2483
350.996	0.2479
351.333	0.2479
351.669	0.2471
352.005	0.2471
352.341	0.2459
352.677	0.2452
353.013	0.2446
353.349	0.2436
353.685	0.2433
354.02	0.2412
354.356	0.24
354.691	0.2395
355.027	0.2378
355.362	0.2373
355.697	0.2368
356.033	0.2367
356.368	0.2347
356.703	0.2338
357.038	0.2326
357.373	0.232
357.707	0.2306
358.042	0.2305
358.377	0.2299
358.711	0.2287
359.046	0.2275
359.38	0.226
359.715	0.2251
360.049	0.2238
360.383	0.2232
360.717	0.2217
361.051	0.2208
361.385	0.219
361.719	0.2169
362.053	0.2157
362.387	0.2137
362.72	0.2122
363.054	0.2105
363.387	0.2086
363.721	0.2066
364.054	0.2046
364.387	0.2035
364.721	0.2019
365.054	0.1998
365.387	0.1983
365.72	0.195
366.053	0.1948
366.385	0.1929
366.718	0.1912
367.051	0.1898
367.383	0.1892
367.716	0.1872
368.048	0.1867
368.381	0.1851
368.713	0.1829
369.045	0.1826
369.377	0.1801
369.709	0.1791
370.041	0.1786
370.373	0.1766
370.705	0.1746
371.037	0.173
371.368	0.1708
371.7	0.1709
372.031	0.1683
372.363	0.1658
372.694	0.1631
373.025	0.1618
373.356	0.1601
373.688	0.1583
374.019	0.1551
374.35	0.154
374.68	0.1518
375.011	0.1503
375.342	0.1476
375.673	0.1463
376.003	0.1435
376.334	0.1432
376.664	0.1406
376.995	0.1398
377.325	0.1356
377.655	0.1359
377.985	0.1344
378.315	0.1326
378.645	0.1315
378.975	0.1297
379.305	0.1293
379.635	0.1278
379.964	0.1274
380.294	0.1247
380.623	0.1239
380.953	0.1225
381.282	0.1211
381.611	0.1194
381.941	0.1183
382.27	0.1163
382.599	0.1148
382.928	0.1132
383.257	0.1123
383.585	0.1105
383.914	0.11
384.243	0.1072
384.571	0.1058
384.9	0.1035
385.228	0.1034
385.557	0.1004
385.885	0.0983
386.213	0.0972
386.541	0.0965
386.869	0.0938
387.197	0.092
387.525	0.0908
387.853	0.0893
388.181	0.0881
388.508	0.086
388.836	0.0846
389.164	0.083
389.491	0.0822
389.818	0.0813
390.146	0.0799
390.473	0.0787
390.8	0.0779
391.127	0.0764
391.454	0.0745
391.781	0.0744
392.108	0.0733
392.435	0.0715
392.761	0.0705
393.088	0.0703
393.415	0.0692
393.741	0.0684
394.067	0.0677
394.394	0.0668
394.72	0.065
395.046	0.0647
395.372	0.0642
395.698	0.0637
396.024	0.0623
396.35	0.0619
396.676	0.0605
397.001	0.0597
397.327	0.0584
397.653	0.058
397.978	0.0557
398.303	0.0556
398.629	0.0544
398.954	0.0533
399.279	0.0533
399.604	0.0522
399.929	0.052
400.254	0.051
400.579	0.0508
400.904	0.0497
401.229	0.0493
401.553	0.0486
401.878	0.0482
402.202	0.0471
402.527	0.0468
402.851	0.0471
403.175	0.0459
403.5	0.0454
403.824	0.0451
404.148	0.045
404.472	0.0438
404.796	0.0433
405.119	0.0436
405.443	0.0434
405.767	0.0418
406.09	0.0423
406.414	0.0421
406.737	0.042
407.061	0.0417
407.384	0.0418
407.707	0.0416
408.03	0.0412
408.353	0.041
408.676	0.0409
408.999	0.0404
409.322	0.0404
409.645	0.0398
409.968	0.0402
410.29	0.0397
410.613	0.0403
410.935	0.0397
411.258	0.0399
411.58	0.0392
411.902	0.0395
412.224	0.0393
412.546	0.0388
412.868	0.0385
413.19	0.0393
413.512	0.039
413.834	0.0378
414.156	0.0389
414.477	0.0389
414.799	0.0384
415.121	0.0388
415.442	0.0391
415.763	0.0385
416.085	0.0394
416.406	0.0393
416.727	0.0388
417.048	0.0386
417.369	0.0381
417.69	0.0381
418.011	0.0377
418.331	0.0386
418.652	0.0388
418.973	0.0387
419.293	0.0389
419.614	0.0392
419.934	0.0391
420.254	0.0391
420.574	0.0385
420.895	0.0394
421.215	0.0389
421.535	0.0386
421.855	0.0388
422.174	0.0384
422.494	0.038
422.814	0.0382
423.134	0.0385
423.453	0.0386
423.773	0.0386
424.092	0.0386
424.411	0.0383
424.731	0.0387
425.05	0.0383
425.369	0.0381
425.688	0.0384
426.007	0.0385
426.326	0.0386
426.644	0.0381
426.963	0.0395
427.282	0.0389
427.6	0.039
427.919	0.0384
428.237	0.0383
428.556	0.0388
428.874	0.0391
429.192	0.0391
429.51	0.0397
429.828	0.039
430.146	0.0393
430.464	0.0383
430.782	0.0385
431.1	0.0393
431.418	0.0387
431.735	0.0387
432.053	0.0396
432.37	0.0391
432.688	0.0385
433.005	0.0389
433.322	0.0396
433.639	0.0389
433.957	0.0399
434.274	0.0392
434.591	0.0387
434.907	0.039
435.224	0.0395
435.541	0.0391
435.858	0.0399
436.174	0.0404
436.491	0.0391
436.807	0.0382
437.124	0.0391
437.44	0.0389
437.756	0.0393
438.072	0.0392
438.388	0.0394
438.704	0.0382
439.02	0.0392
439.336	0.0386
439.652	0.0381
439.968	0.0377
440.283	0.0379
440.599	0.0378
440.914	0.0385
441.23	0.039
441.545	0.0382
441.86	0.0375
442.175	0.0378
442.491	0.0378
442.806	0.0378
443.121	0.0376
443.435	0.0378
443.75	0.0379
444.065	0.0381
444.38	0.0374
444.694	0.0381
445.009	0.0377
445.323	0.0379
445.638	0.0367
445.952	0.0376
446.266	0.0383
446.58	0.0373
446.894	0.037
447.208	0.0373
447.522	0.0377
447.836	0.0372
448.15	0.0359
448.464	0.0368
448.777	0.037
449.091	0.0365
449.404	0.0365
449.718	0.0363
450.031	0.0364
450.345	0.0361
450.658	0.0367
450.971	0.0358
451.284	0.0357
451.597	0.0351
451.91	0.0358
452.223	0.0351
452.535	0.0353
452.848	0.0355
453.161	0.0346
453.473	0.0351
453.786	0.0345
454.098	0.0352
454.411	0.0351
454.723	0.034
455.035	0.0338
455.347	0.0332
455.659	0.0339
455.971	0.0346
456.283	0.033
456.595	0.0329
456.907	0.0335
457.218	0.0331
457.53	0.0322
457.841	0.0334
458.153	0.0328
458.464	0.0326
458.776	0.0327
459.087	0.032
459.398	0.0326
459.709	0.0323
460.02	0.032
460.331	0.0308
460.642	0.0319
460.953	0.0308
461.263	0.0307
461.574	0.0303
461.885	0.0312
462.195	0.0299
462.506	0.0302
462.816	0.03
463.126	0.0304
463.437	0.0298
463.747	0.0294
464.057	0.0298
464.367	0.0297
464.677	0.0288
464.987	0.0283
465.296	0.0286
465.606	0.0269
465.916	0.028
466.225	0.0279
466.535	0.0279
466.844	0.0276
467.154	0.0272
467.463	0.0275
467.772	0.027
468.081	0.0274
468.39	0.0266
468.699	0.0271
469.008	0.0261
469.317	0.0257
469.626	0.0249
469.935	0.0249
470.243	0.0251
470.552	0.0252
470.86	0.0246
471.169	0.0251
471.477	0.025
471.785	0.0246
472.093	0.0251
472.402	0.0239
472.71	0.0239
473.018	0.0228
473.326	0.0233
473.633	0.0236
473.941	0.0233
474.249	0.0231
474.556	0.024
474.864	0.0232
475.171	0.022
475.479	0.021
475.786	0.0212
476.094	0.0223
476.401	0.0209
476.708	0.0213
477.015	0.0211
477.322	0.0212
477.629	0.0203
477.936	0.0211
478.242	0.0202
478.549	0.0198
478.856	0.0205
479.162	0.02
479.469	0.0195
479.775	0.0204
480.081	0.0193
480.388	0.0191
480.694	0.0195
481	0.0181
481.306	0.0185
481.612	0.0186
481.918	0.0183
482.224	0.0174
482.53	0.0178
482.835	0.0179
483.141	0.0176
483.446	0.0179
483.752	0.017
484.057	0.0166
484.363	0.016
484.668	0.0163
484.973	0.0153
485.278	0.0156
485.583	0.0151
485.888	0.0157
486.193	0.0143
486.498	0.014
486.803	0.0145
487.107	0.0147
487.412	0.0142
487.717	0.0138
488.021	0.0141
488.325	0.0148
488.63	0.0152
488.934	0.0147
489.238	0.0143
489.542	0.0124
489.846	0.0132
490.15	0.0131
490.454	0.0133
490.758	0.0124
491.062	0.0125
491.366	0.0128
491.669	0.0123
491.973	0.013
492.276	0.0113
492.58	0.0122
492.883	0.0114
493.186	0.0113
493.489	0.0112
493.792	0.0107
494.096	0.0105
494.399	0.0096
494.701	0.0111
495.004	0.0096
495.307	0.0104
495.61	0.009
495.912	0.0095
496.215	0.0092
496.517	0.0083
496.82	0.0087
497.122	0.0085
497.424	0.0085
497.727	0.0088
498.029	0.0079
498.331	0.0085
498.633	0.009
498.935	0.0086
499.237	0.0073
499.538	0.008
499.84	0.0075
500.142	0.0074
500.443	0.0067
500.745	0.0074
501.046	0.0062
501.348	0.0071
501.649	0.0059
501.95	0.0061
502.251	0.006
502.552	0.0055
502.853	0.0063
503.154	0.0051
503.455	0.0064
503.756	0.0052
504.057	0.0065
504.357	0.005
504.658	0.0056
504.958	0.0057
505.259	0.0049
505.559	0.0053
505.859	0.0051
506.16	0.0039
506.46	0.0057
506.76	0.0044
507.06	0.0055
507.36	0.0047
507.66	0.0044
507.96	0.0056
508.259	0.0032
508.559	0.0043
508.859	0.0043
509.158	0.0039
509.457	0.0033
509.757	0.0035
510.056	0.0036
510.355	0.0032
510.655	0.0023
510.954	0.0033
511.253	0.0031
511.552	0.0028
511.851	0.0028
512.149	0.0014
512.448	0.003
512.747	0.0025
513.045	0.0028
513.344	0.002
513.642	0.0021
513.941	0.0022
514.239	0.0021
514.537	0.0016
514.836	0.002
515.134	0.0004
515.432	0.0033
515.73	0.0021
516.028	0.0015
516.326	0.0028
516.623	0.0014
516.921	-0.0004
517.219	0.0009
517.516	0.0014
517.814	0.0009
518.111	0.0013
518.409	-0
518.706	0.0019
519.003	0.0009
519.3	0.0014
519.597	0.0008
519.894	0.0006
520.191	0.0008
520.488	0.0008
520.785	0.0007
521.082	0.0013
521.378	-0.0005
521.675	-0
521.971	0.0002
522.268	0.001
522.564	0.0011
522.861	0.0008
523.157	0.0016
523.453	0.0013
523.749	0
524.045	0.0006
524.341	0.001
524.637	0.0001
524.933	0.0003
525.229	0.0001
525.524	-0.0004
525.82	-0.0002
526.115	-0.0003
526.411	0.0002
526.706	0.0004
527.002	0.0007
527.297	-0.0009
527.592	0.0007
527.887	0.0009
528.182	0.0007
528.477	0.0005
528.772	0.0001
529.067	-0.0003
529.362	-0.001
529.657	0.0008
529.951	0.0002
530.246	-0.0009
530.54	0.0001
530.835	-0.001
531.129	-0.0008
531.423	0.0003
531.718	-0.0001
532.012	0.0007
532.306	0.0004
532.6	-0.0005
532.894	-0.0002
533.188	-0.0001
533.482	-0.0004
533.775	-0.0004
534.069	-0.0008
534.363	-0.0019
534.656	-0.0019
534.95	0.0007
535.243	-0.0007
535.536	-0.0012
535.83	-0.002
536.123	-0.0004
536.416	-0.0013
536.709	-0.0013
537.002	-0.0023
537.295	-0.0012
537.588	-0.0015
537.881	-0.0014
538.173	-0.0007
538.466	-0.0017
538.759	-0.001
539.051	-0.0005
539.344	-0.0011
539.636	-0.0012
539.928	-0.0013
540.22	-0.0002
540.513	-0.0011
540.805	-0.0001
541.097	-0.0015
541.389	-0.0002
541.681	0.0002
541.972	0.0004
542.264	0.0001
542.556	-0
542.847	0.001
543.139	0.0002
543.431	-0.0007
543.722	-0.001
544.013	0.001
544.305	-0.001
544.596	-0.0015
544.887	-0.0006
545.178	-0.0003
545.469	-0.0014
545.76	-0.0017
546.051	0.0009
546.342	-0.0002
546.632	-0.0011
546.923	-0.001
547.214	-0.0018
547.504	-0.0017
547.795	-0.0019
548.085	-0.0019
548.375	-0.0009
548.666	-0.0018
548.956	-0.0005
549.246	-0.0007
549.536	-0
549.826	-0.0002
550.116	0.0006
550.406	-0.0004
550.695	-0.0022
550.985	-0.0005
551.275	-0.0016
551.564	-0.0003
551.854	0.0001
552.143	-0.0014
552.433	-0.0016
552.722	-0.0022
553.011	0.0002
553.3	-0.0005
553.589	0.0006
553.879	-0.0008
554.167	-0.0001
554.456	0.0002
554.745	0.0004
555.034	-0.0006
555.323	0.0001
555.611	-0.0005
555.9	-0.0002
556.188	-0.0016
556.477	-0.0001
556.765	-0.0015
557.053	-0.001
557.342	0.0003
557.63	-0.0002
557.918	0.0007
558.206	0.001
558.494	0.0013
558.782	0.0009
559.069	0.0023
559.357	0.0016
559.645	0.001
559.932	0.0003
560.22	-0.0001
560.507	-0.0011
560.795	-0.0014
561.082	-0.0023
561.37	-0.0005
561.657	-0.0016
561.944	-0.0009
562.231	-0.0009
562.518	-0.0001
562.805	-0
563.092	0.0001
563.379	0.0004
563.665	0.0005
563.952	0.0004
564.239	0.0005
564.525	0.0009
564.811	0.0013
565.098	0.0007
565.384	0.0006
565.67	0.0016
565.957	0.001
566.243	0.0022
566.529	0.0011
566.815	0.0006
567.101	0.0013
567.387	0.0015
567.672	0.0012
567.958	0.0012
568.244	0.0011
568.529	0.0008
568.815	-0.0007
569.1	-0.0007
569.386	-0.0015
569.671	0.0003
569.956	-0.0004
570.242	-0
570.527	-0.0005
570.812	0.0001
571.097	0
571.382	-0.0006
571.666	0.0004
571.951	-0.0008
572.236	-0.0009
572.521	-0.0001
572.805	0.0006
573.09	-0.0002
573.374	-0.0015
573.659	-0.0008
573.943	-0.0004
574.227	-0.0006
574.511	-0.0012
574.795	-0.0004
575.079	-0.0003
575.363	-0.0011
575.647	-0.0007
575.931	0.0003
576.215	-0.0012
576.499	-0.0008
576.782	-0.0006
577.066	-0.0009
577.349	0.0002
577.633	-0.0009
577.916	-0.0013
578.2	-0.0016
578.483	-0.0011
578.766	-0.0005
579.049	-0.0007
579.332	0.0004
579.615	0.0004
579.898	-0.0002
580.181	0.0004
580.464	0.0009
580.746	-0.0005
581.029	-0.0005
581.312	-0.0012
581.594	-0.0013
581.877	-0.0014
582.159	-0.0015
582.441	-0.0016
582.724	-0.0008
583.006	0.0004
583.288	-0.0005
583.57	0.0001
583.852	-0
584.134	-0.0001
584.416	-0.0004
584.697	-0.0007
584.979	-0.0021
585.261	-0.0026
585.542	-0.0025
585.824	-0.0016
586.105	-0.0015
586.387	-0.0011
586.668	-0.0014
586.949	-0.0002
587.231	0.0006
587.512	-0.0005
587.793	-0.0003
588.074	-0.0014
588.355	-0.0005
588.636	-0.0011
588.916	-0.0011
589.197	-0.0001
589.478	0
589.758	-0
590.039	0.0002
590.319	0.0001
590.6	0.0004
590.88	0.0003
591.16	0.0007
591.441	0.0008
591.721	0.0008
592.001	-0.0001
592.281	-0.0003
592.561	0.0003
592.841	-0.0012
593.12	-0.0026
593.4	-0.0018
593.68	-0.0018
593.959	-0.0014
594.239	-0.0009
594.518	-0.0003
594.798	0.0005
