Data from 03 0.5 mM K2Cr2O7 0.3 mM BQDS 1 M H2SO4 5 min_Absorbance_0118.txt Node
Date: Tue Dec 14 03:29:45 EST 2021
User: kwabilab-user
Spectrometer: HDX00518
Trigger mode: 0
Integration Time (sec): 5.000000E-2
Scans to average: 50
Nonlinearity correction enabled: false
Boxcar width: 0
Storing dark spectrum: false
XAxis mode: Wavelengths
Number of Pixels in Spectrum: 2068
>>>>>Begin Spectral Data<<<<<
195.27	0.0802
195.642	0.1392
196.014	0.0474
196.386	0.2311
196.758	0.0277
197.129	0.0046
197.501	0.0108
197.872	0.0235
198.244	0.0418
198.615	0.0622
198.986	0.0336
199.357	0.0488
199.728	0.0504
200.099	0.0574
200.47	0.0328
200.841	0.0421
201.212	0.0559
201.582	0.0722
201.953	0.0414
202.323	0.0726
202.694	0.0524
203.064	0.0376
203.434	0.051
203.804	0.05
204.174	0.052
204.544	0.0582
204.914	0.0523
205.284	0.0492
205.653	0.0614
206.023	0.0437
206.393	0.0287
206.762	0.0624
207.131	0.0865
207.501	0.0394
207.87	0.0564
208.239	0.065
208.608	0.0651
208.977	0.0369
209.346	0.0515
209.715	0.0593
210.083	0.0422
210.452	0.0432
210.82	0.059
211.189	0.0452
211.557	0.0648
211.925	0.017
212.294	0.0564
212.662	0.0606
213.03	0.0348
213.398	0.0731
213.766	0.0667
214.133	0.0696
214.501	0.0613
214.869	0.0855
215.236	0.053
215.604	0.0703
215.971	0.0696
216.338	0.0877
216.705	0.0935
217.072	0.0919
217.439	0.0728
217.806	0.0784
218.173	0.088
218.54	0.0814
218.907	0.1016
219.273	0.097
219.64	0.0992
220.006	0.1127
220.373	0.0978
220.739	0.1446
221.105	0.1643
221.471	0.1775
221.837	0.1578
222.203	0.1994
222.569	0.2084
222.935	0.2482
223.3	0.2381
223.666	0.2787
224.031	0.2813
224.397	0.2981
224.762	0.3164
225.127	0.3485
225.493	0.3656
225.858	0.3815
226.223	0.4331
226.588	0.4537
226.952	0.4674
227.317	0.4872
227.682	0.4915
228.046	0.488
228.411	0.5507
228.775	0.5644
229.14	0.5613
229.504	0.5709
229.868	0.5955
230.232	0.6044
230.596	0.5981
230.96	0.6413
231.324	0.6149
231.688	0.6393
232.052	0.649
232.415	0.6539
232.779	0.6567
233.142	0.6707
233.505	0.685
233.869	0.6846
234.232	0.6797
234.595	0.6629
234.958	0.6757
235.321	0.6847
235.684	0.6796
236.047	0.6854
236.409	0.6688
236.772	0.6874
237.134	0.6954
237.497	0.6771
237.859	0.6905
238.222	0.6784
238.584	0.6769
238.946	0.6731
239.308	0.6766
239.67	0.669
240.032	0.6669
240.393	0.6708
240.755	0.6615
241.117	0.6621
241.478	0.6615
241.84	0.659
242.201	0.6578
242.562	0.6453
242.924	0.6354
243.285	0.6392
243.646	0.6491
244.007	0.6374
244.368	0.6554
244.728	0.6426
245.089	0.6423
245.45	0.6396
245.81	0.6448
246.171	0.6331
246.531	0.6447
246.891	0.6307
247.252	0.6295
247.612	0.6274
247.972	0.6313
248.332	0.6268
248.692	0.629
249.051	0.6361
249.411	0.6282
249.771	0.6275
250.13	0.6212
250.49	0.6165
250.849	0.6259
251.208	0.632
251.568	0.6242
251.927	0.6245
252.286	0.629
252.645	0.6244
253.004	0.6194
253.363	0.6221
253.721	0.6189
254.08	0.6195
254.439	0.6118
254.797	0.6148
255.155	0.6136
255.514	0.6144
255.872	0.6231
256.23	0.6122
256.588	0.6234
256.946	0.613
257.304	0.6156
257.662	0.6164
258.02	0.6121
258.377	0.6096
258.735	0.601
259.093	0.6035
259.45	0.5999
259.807	0.5996
260.165	0.6019
260.522	0.5983
260.879	0.5974
261.236	0.597
261.593	0.5936
261.95	0.5925
262.306	0.5902
262.663	0.5841
263.02	0.5839
263.376	0.5813
263.733	0.5846
264.089	0.5783
264.445	0.5753
264.802	0.5733
265.158	0.5748
265.514	0.5731
265.87	0.5645
266.226	0.5608
266.581	0.5685
266.937	0.5631
267.293	0.5547
267.648	0.5542
268.004	0.5568
268.359	0.5481
268.714	0.5443
269.07	0.5417
269.425	0.5389
269.78	0.5258
270.135	0.5333
270.49	0.5306
270.844	0.5308
271.199	0.5275
271.554	0.5223
271.908	0.5172
272.263	0.5198
272.617	0.5133
272.972	0.5113
273.326	0.5026
273.68	0.4988
274.034	0.4969
274.388	0.4933
274.742	0.4925
275.096	0.4913
275.45	0.4842
275.803	0.483
276.157	0.4771
276.51	0.4718
276.864	0.4686
277.217	0.4681
277.571	0.4671
277.924	0.4635
278.277	0.4556
278.63	0.4483
278.983	0.4431
279.336	0.4427
279.688	0.4375
280.041	0.4335
280.394	0.4297
280.746	0.4234
281.099	0.4207
281.451	0.4135
281.803	0.4118
282.156	0.4048
282.508	0.4041
282.86	0.3977
283.212	0.3914
283.564	0.3899
283.916	0.3858
284.267	0.3805
284.619	0.3764
284.971	0.3706
285.322	0.3684
285.673	0.3637
286.025	0.3587
286.376	0.3548
286.727	0.3509
287.078	0.3488
287.429	0.3418
287.78	0.3405
288.131	0.3353
288.482	0.3317
288.833	0.3262
289.183	0.3196
289.534	0.3193
289.884	0.3134
290.235	0.31
290.585	0.3053
290.935	0.3017
291.285	0.2956
291.635	0.2943
291.985	0.29
292.335	0.2848
292.685	0.2822
293.035	0.2796
293.384	0.274
293.734	0.2697
294.083	0.2664
294.433	0.2624
294.782	0.259
295.131	0.2547
295.48	0.2497
295.829	0.2488
296.179	0.2431
296.527	0.2409
296.876	0.2356
297.225	0.2332
297.574	0.2285
297.922	0.2264
298.271	0.2233
298.619	0.2202
298.968	0.2162
299.316	0.212
299.664	0.2107
300.012	0.2077
300.36	0.2043
300.708	0.2001
301.056	0.1979
301.404	0.1945
301.752	0.1931
302.099	0.1891
302.447	0.1877
302.794	0.1856
303.142	0.1827
303.489	0.1798
303.836	0.1786
304.183	0.1758
304.531	0.1739
304.878	0.1723
305.224	0.1705
305.571	0.1684
305.918	0.1672
306.265	0.1656
306.611	0.1633
306.958	0.1632
307.304	0.1606
307.651	0.1602
307.997	0.1582
308.343	0.1582
308.689	0.157
309.035	0.155
309.381	0.1547
309.727	0.1528
310.073	0.1539
310.419	0.1523
310.764	0.1511
311.11	0.1512
311.455	0.1509
311.801	0.1506
312.146	0.1494
312.491	0.1495
312.837	0.1487
313.182	0.1492
313.527	0.1498
313.872	0.1492
314.216	0.1499
314.561	0.1492
314.906	0.1497
315.251	0.1498
315.595	0.1502
315.94	0.15
316.284	0.1519
316.628	0.1518
316.972	0.1524
317.317	0.1533
317.661	0.1532
318.005	0.1542
318.348	0.1548
318.692	0.1559
319.036	0.1559
319.38	0.1568
319.723	0.1578
320.067	0.1591
320.41	0.1602
320.754	0.1615
321.097	0.1628
321.44	0.163
321.783	0.1645
322.126	0.1663
322.469	0.1671
322.812	0.1681
323.155	0.1698
323.498	0.1716
323.84	0.1729
324.183	0.1748
324.525	0.1766
324.868	0.1781
325.21	0.1786
325.552	0.1808
325.894	0.1817
326.236	0.1828
326.578	0.1852
326.92	0.1868
327.262	0.1888
327.604	0.1896
327.946	0.1914
328.287	0.193
328.629	0.1953
328.97	0.1968
329.312	0.1982
329.653	0.1999
329.994	0.2017
330.335	0.2035
330.676	0.2057
331.017	0.2076
331.358	0.2098
331.699	0.2113
332.04	0.2128
332.38	0.2143
332.721	0.2155
333.061	0.2182
333.402	0.2203
333.742	0.2217
334.083	0.2237
334.423	0.2253
334.763	0.2263
335.103	0.2276
335.443	0.229
335.783	0.2307
336.123	0.232
336.462	0.2337
336.802	0.2356
337.141	0.2365
337.481	0.2384
337.82	0.2388
338.16	0.2401
338.499	0.2425
338.838	0.2436
339.177	0.2462
339.516	0.2473
339.855	0.248
340.194	0.2489
340.533	0.2506
340.872	0.2516
341.21	0.2534
341.549	0.2537
341.887	0.2548
342.226	0.2561
342.564	0.2568
342.902	0.2572
343.24	0.2579
343.578	0.259
343.916	0.2589
344.254	0.2596
344.592	0.26
344.93	0.2612
345.268	0.2601
345.605	0.2608
345.943	0.2622
346.28	0.2617
346.618	0.2618
346.955	0.2623
347.292	0.2626
347.629	0.2632
347.966	0.2629
348.303	0.2629
348.64	0.2643
348.977	0.2636
349.314	0.2637
349.65	0.2639
349.987	0.2643
350.324	0.2645
350.66	0.2641
350.996	0.2627
351.333	0.2624
351.669	0.2627
352.005	0.2616
352.341	0.2609
352.677	0.2596
353.013	0.2593
353.349	0.2578
353.685	0.2572
354.02	0.2557
354.356	0.2544
354.691	0.2534
355.027	0.2528
355.362	0.2526
355.697	0.2512
356.033	0.2507
356.368	0.2489
356.703	0.2481
357.038	0.2478
357.373	0.2452
357.707	0.2447
358.042	0.2443
358.377	0.2433
358.711	0.2422
359.046	0.2409
359.38	0.2401
359.715	0.2391
360.049	0.2382
360.383	0.2363
360.717	0.2354
361.051	0.2339
361.385	0.2327
361.719	0.23
362.053	0.2289
362.387	0.2266
362.72	0.225
363.054	0.2231
363.387	0.2217
363.721	0.2201
364.054	0.2171
364.387	0.2163
364.721	0.2136
365.054	0.2115
365.387	0.2103
365.72	0.2079
366.053	0.2065
366.385	0.205
366.718	0.203
367.051	0.2016
367.383	0.2003
367.716	0.199
368.048	0.1979
368.381	0.1958
368.713	0.1952
369.045	0.1937
369.377	0.1916
369.709	0.1906
370.041	0.1896
370.373	0.1874
370.705	0.1855
371.037	0.1838
371.368	0.1826
371.7	0.1813
372.031	0.1783
372.363	0.1766
372.694	0.1742
373.025	0.1718
373.356	0.1706
373.688	0.1684
374.019	0.166
374.35	0.1641
374.68	0.1618
375.011	0.1597
375.342	0.1569
375.673	0.156
376.003	0.1534
376.334	0.1515
376.664	0.1498
376.995	0.1482
377.325	0.1462
377.655	0.1454
377.985	0.1434
378.315	0.1419
378.645	0.1402
378.975	0.1389
379.305	0.1372
379.635	0.1365
379.964	0.136
380.294	0.1332
380.623	0.1329
380.953	0.1309
381.282	0.1293
381.611	0.1274
381.941	0.1262
382.27	0.1249
382.599	0.1224
382.928	0.1214
383.257	0.1205
383.585	0.1185
383.914	0.1171
384.243	0.1154
384.571	0.113
384.9	0.1106
385.228	0.1095
385.557	0.1074
385.885	0.1054
386.213	0.1047
386.541	0.1032
386.869	0.1008
387.197	0.0988
387.525	0.0971
387.853	0.0959
388.181	0.0948
388.508	0.0927
388.836	0.0908
389.164	0.0892
389.491	0.0887
389.818	0.0868
390.146	0.0863
390.473	0.0849
390.8	0.0835
391.127	0.0821
391.454	0.0805
391.781	0.0799
392.108	0.0783
392.435	0.077
392.761	0.0761
393.088	0.0759
393.415	0.0746
393.741	0.0741
394.067	0.0726
394.394	0.0722
394.72	0.0709
395.046	0.0707
395.372	0.0694
395.698	0.0684
396.024	0.0677
396.35	0.0664
396.676	0.065
397.001	0.0645
397.327	0.0629
397.653	0.0619
397.978	0.0614
398.303	0.0603
398.629	0.0588
398.954	0.0579
399.279	0.0571
399.604	0.0566
399.929	0.056
400.254	0.0551
400.579	0.0552
400.904	0.054
401.229	0.0533
401.553	0.0525
401.878	0.0517
402.202	0.0515
402.527	0.0509
402.851	0.0505
403.175	0.0496
403.5	0.0494
403.824	0.0493
404.148	0.0484
404.472	0.0476
404.796	0.0475
405.119	0.0472
405.443	0.0466
405.767	0.0462
406.09	0.046
406.414	0.0459
406.737	0.0454
407.061	0.045
407.384	0.045
407.707	0.0445
408.03	0.0441
408.353	0.0453
408.676	0.0437
408.999	0.0441
409.322	0.044
409.645	0.0435
409.968	0.0434
410.29	0.0438
410.613	0.0437
410.935	0.0438
411.258	0.0427
411.58	0.0424
411.902	0.0429
412.224	0.042
412.546	0.0423
412.868	0.0422
413.19	0.0418
413.512	0.042
413.834	0.0416
414.156	0.0416
414.477	0.0421
414.799	0.0416
415.121	0.0422
415.442	0.042
415.763	0.0421
416.085	0.042
416.406	0.0416
416.727	0.0421
417.048	0.0417
417.369	0.0418
417.69	0.0407
418.011	0.0413
418.331	0.0419
418.652	0.0425
418.973	0.0415
419.293	0.0415
419.614	0.0414
419.934	0.043
420.254	0.0419
420.574	0.0424
420.895	0.0417
421.215	0.0417
421.535	0.0417
421.855	0.0413
422.174	0.0417
422.494	0.0409
422.814	0.0415
423.134	0.0414
423.453	0.0417
423.773	0.0416
424.092	0.0417
424.411	0.0412
424.731	0.0416
425.05	0.0414
425.369	0.0417
425.688	0.0415
426.007	0.0413
426.326	0.0419
426.644	0.042
426.963	0.0422
427.282	0.0416
427.6	0.0416
427.919	0.0412
428.237	0.042
428.556	0.042
428.874	0.042
429.192	0.0419
429.51	0.0422
429.828	0.0417
430.146	0.0424
430.464	0.0412
430.782	0.0418
431.1	0.0423
431.418	0.0418
431.735	0.042
432.053	0.0423
432.37	0.042
432.688	0.0421
433.005	0.041
433.322	0.0423
433.639	0.0415
433.957	0.0423
434.274	0.0423
434.591	0.0421
434.907	0.0416
435.224	0.0417
435.541	0.0418
435.858	0.0426
436.174	0.0427
436.491	0.0415
436.807	0.0412
437.124	0.0418
437.44	0.0419
437.756	0.0418
438.072	0.0422
438.388	0.0428
438.704	0.0425
439.02	0.0424
439.336	0.041
439.652	0.041
439.968	0.0408
440.283	0.0404
440.599	0.0406
440.914	0.0413
441.23	0.0418
441.545	0.0411
441.86	0.0416
442.175	0.0411
442.491	0.0414
442.806	0.0412
443.121	0.0405
443.435	0.0408
443.75	0.0412
444.065	0.0409
444.38	0.0408
444.694	0.0407
445.009	0.041
445.323	0.041
445.638	0.0399
445.952	0.0401
446.266	0.0402
446.58	0.0403
446.894	0.0406
447.208	0.0402
447.522	0.0399
447.836	0.0405
448.15	0.0391
448.464	0.0391
448.777	0.0393
449.091	0.039
449.404	0.0393
449.718	0.0384
450.031	0.0392
450.345	0.0384
450.658	0.0389
450.971	0.039
451.284	0.0385
451.597	0.0386
451.91	0.0383
452.223	0.0381
452.535	0.0377
452.848	0.0385
453.161	0.037
453.473	0.0386
453.786	0.0371
454.098	0.037
454.411	0.0379
454.723	0.0365
455.035	0.0363
455.347	0.0363
455.659	0.0364
455.971	0.0367
456.283	0.0357
456.595	0.0357
456.907	0.0366
457.218	0.0357
457.53	0.0349
457.841	0.035
458.153	0.0354
458.464	0.0358
458.776	0.0351
459.087	0.0345
459.398	0.0349
459.709	0.0343
460.02	0.0346
460.331	0.0333
460.642	0.0338
460.953	0.0334
461.263	0.0328
461.574	0.0335
461.885	0.033
462.195	0.0327
462.506	0.0328
462.816	0.0329
463.126	0.0326
463.437	0.0321
463.747	0.0316
464.057	0.0313
464.367	0.0312
464.677	0.0308
464.987	0.0306
465.296	0.0308
465.606	0.0302
465.916	0.0302
466.225	0.0309
466.535	0.0307
466.844	0.0305
467.154	0.0306
467.463	0.0298
467.772	0.0298
468.081	0.0299
468.39	0.0292
468.699	0.029
469.008	0.0286
469.317	0.0285
469.626	0.0265
469.935	0.0265
470.243	0.0278
470.552	0.0275
470.86	0.0273
471.169	0.0271
471.477	0.0265
471.785	0.0266
472.093	0.0266
472.402	0.0262
472.71	0.0264
473.018	0.0264
473.326	0.025
473.633	0.0258
473.941	0.0257
474.249	0.0248
474.556	0.0263
474.864	0.0249
475.171	0.025
475.479	0.0238
475.786	0.024
476.094	0.0242
476.401	0.0228
476.708	0.0239
477.015	0.0235
477.322	0.0224
477.629	0.0227
477.936	0.0226
478.242	0.0223
478.549	0.0217
478.856	0.0225
479.162	0.0215
479.469	0.0211
479.775	0.0218
480.081	0.0207
480.388	0.0211
480.694	0.0208
481	0.021
481.306	0.0205
481.612	0.02
481.918	0.0199
482.224	0.0199
482.53	0.0191
482.835	0.0191
483.141	0.0191
483.446	0.0192
483.752	0.0179
484.057	0.0185
484.363	0.018
484.668	0.0187
484.973	0.0169
485.278	0.0173
485.583	0.0177
485.888	0.0167
486.193	0.0153
486.498	0.0162
486.803	0.0171
487.107	0.0165
487.412	0.0156
487.717	0.0154
488.021	0.0161
488.325	0.0164
488.63	0.0163
488.934	0.0157
489.238	0.0161
489.542	0.014
489.846	0.0148
490.15	0.0153
490.454	0.0142
490.758	0.0141
491.062	0.0133
491.366	0.0144
491.669	0.0134
491.973	0.0146
492.276	0.0139
492.58	0.0139
492.883	0.013
493.186	0.0127
493.489	0.0125
493.792	0.0117
494.096	0.0115
494.399	0.0123
494.701	0.0124
495.004	0.0105
495.307	0.0116
495.61	0.0103
495.912	0.0109
496.215	0.0099
496.517	0.0103
496.82	0.0105
497.122	0.0094
497.424	0.0102
497.727	0.0101
498.029	0.0098
498.331	0.0103
498.633	0.0102
498.935	0.0091
499.237	0.0089
499.538	0.0084
499.84	0.0096
500.142	0.0086
500.443	0.0084
500.745	0.0076
501.046	0.0066
501.348	0.0074
501.649	0.007
501.95	0.007
502.251	0.0071
502.552	0.0075
502.853	0.0067
503.154	0.0066
503.455	0.0065
503.756	0.0068
504.057	0.0076
504.357	0.0057
504.658	0.0067
504.958	0.0066
505.259	0.0064
505.559	0.0062
505.859	0.0052
506.16	0.0058
506.46	0.0061
506.76	0.0062
507.06	0.0056
507.36	0.006
507.66	0.0058
507.96	0.006
508.259	0.0057
508.559	0.0055
508.859	0.0048
509.158	0.0048
509.457	0.0039
509.757	0.0044
510.056	0.0044
510.355	0.0045
510.655	0.0036
510.954	0.0044
511.253	0.0036
511.552	0.0039
511.851	0.0038
512.149	0.0036
512.448	0.0046
512.747	0.0041
513.045	0.0026
513.344	0.0024
513.642	0.0028
513.941	0.0027
514.239	0.0033
514.537	0.0027
514.836	0.0036
515.134	0.0015
515.432	0.0041
515.73	0.0028
516.028	0.0025
516.326	0.0016
516.623	0.0027
516.921	0.0014
517.219	0.0023
517.516	0.0021
517.814	0.0023
518.111	0.0021
518.409	0.0012
518.706	0.0019
519.003	0.002
519.3	0.0017
519.597	0.001
519.894	0.0015
520.191	0.001
520.488	0.0014
520.785	0.0009
521.082	0.0014
521.378	0.0004
521.675	0.0015
521.971	0.0006
522.268	0.0021
522.564	0.0012
522.861	0.0016
523.157	0.001
523.453	0.0013
523.749	0.0012
524.045	0.0013
524.341	0.0002
524.637	0.0003
524.933	0.0001
525.229	0.0006
525.524	0.0003
525.82	0.0004
526.115	0.001
526.411	0.0011
526.706	0.0005
527.002	0.0003
527.297	-0.0009
527.592	0.0012
527.887	0.0026
528.182	0.0004
528.477	0.001
528.772	0.0011
529.067	-0.0006
529.362	0.0009
529.657	0.0004
529.951	0.0005
530.246	-0.0012
530.54	0.0008
530.835	0.0003
531.129	0
531.423	0.0002
531.718	-0.0002
532.012	-0.0003
532.306	0.0002
532.6	-0.0002
532.894	-0.0007
533.188	-0.0001
533.482	-0.0005
533.775	-0.0004
534.069	-0.0006
534.363	-0.0021
534.656	-0.0017
534.95	-0
535.243	-0.0003
535.536	0.0002
535.83	-0.0019
536.123	0.0001
536.416	-0.0006
536.709	-0.0007
537.002	-0.0009
537.295	-0.0007
537.588	-0.0014
537.881	-0.0008
538.173	-0.0016
538.466	-0.0016
538.759	-0.0008
539.051	-0.0003
539.344	-0.0005
539.636	-0.0008
539.928	0.0002
540.22	0.0005
540.513	-0.0002
540.805	0.0001
541.097	-0.0016
541.389	-0.0012
541.681	0
541.972	0.0012
542.264	-0.0001
542.556	0.0001
542.847	0.0006
543.139	0.0005
543.431	0.0001
543.722	-0.0003
544.013	0.0008
544.305	-0.001
544.596	-0.0007
544.887	-0.0007
545.178	-0.0004
545.469	-0.0017
545.76	-0.0008
546.051	0.0011
546.342	-0.0015
546.632	-0.0009
546.923	-0.0009
547.214	-0.0002
547.504	-0.0012
547.795	-0.001
548.085	-0.0022
548.375	-0.0014
548.666	-0.002
548.956	-0.0008
549.246	-0.0002
549.536	0
549.826	-0.0003
550.116	-0.0009
550.406	-0.0018
550.695	-0.0026
550.985	-0.0004
551.275	-0.0012
551.564	-0.0014
551.854	-0.0008
552.143	-0.0011
552.433	-0.0023
552.722	-0.002
553.011	0
553.3	-0.0004
553.589	-0.0004
553.879	-0.0009
554.167	-0.0008
554.456	-0.0001
554.745	0.0001
555.034	-0.001
555.323	-0.0003
555.611	-0.0007
555.9	-0.0002
556.188	-0.0009
556.477	0.0003
556.765	-0.0024
557.053	-0.0009
557.342	-0.0007
557.63	-0.0001
557.918	0.0004
558.206	0.0008
558.494	0.0004
558.782	0.0004
559.069	0.0002
559.357	0.0019
559.645	-0.0002
559.932	-0.0003
560.22	-0.0002
560.507	-0.0018
560.795	-0.0007
561.082	-0.0017
561.37	-0.0007
561.657	-0.0011
561.944	-0.0011
562.231	0.0001
562.518	-0.0003
562.805	-0.0005
563.092	0.0006
563.379	-0.0004
563.665	-0.0001
563.952	0.0003
564.239	0.0004
564.525	0.0007
564.811	0.0008
565.098	-0.0001
565.384	0.0001
565.67	0.0009
565.957	0.002
566.243	0.0024
566.529	0.0004
566.815	0.0004
567.101	0.0025
567.387	-0.0002
567.672	-0.0007
567.958	0.0011
568.244	0.0001
568.529	0.0005
568.815	-0.0004
569.1	-0.0006
569.386	-0.0008
569.671	0.0005
569.956	-0
570.242	-0.0006
570.527	-0.0006
570.812	0.0007
571.097	-0.0002
571.382	-0.0007
571.666	0.0007
571.951	0.0001
572.236	0.0003
572.521	0.0006
572.805	0.0003
573.09	-0.001
573.374	-0.0013
573.659	-0.0006
573.943	-0.0005
574.227	-0.0006
574.511	-0.0007
574.795	-0.0009
575.079	0.0004
575.363	-0.0007
575.647	-0.0009
575.931	0.0002
576.215	-0.0011
576.499	-0.0011
576.782	-0.0007
577.066	-0.001
577.349	0.0004
577.633	-0.0012
577.916	-0.0015
578.2	-0.0006
578.483	0.0001
578.766	0.0001
579.049	-0.0002
579.332	0.0009
579.615	-0.0003
579.898	0.0005
580.181	0.0004
580.464	0.0007
580.746	-0.0001
581.029	-0.0011
581.312	-0.0013
581.594	-0.0019
581.877	-0.0005
582.159	-0.0005
582.441	-0.0009
582.724	-0.001
583.006	0.001
583.288	0.0001
583.57	0.0014
583.852	0.0003
584.134	0.0002
584.416	-0.0005
584.697	-0.0002
584.979	-0.0021
585.261	-0.0018
585.542	-0.001
585.824	-0.0013
586.105	-0.0008
586.387	-0.0009
586.668	-0.001
586.949	-0.0009
587.231	-0.0012
587.512	0.0001
587.793	-0.0004
588.074	-0.0008
588.355	-0.0003
588.636	-0.0007
588.916	-0.0008
589.197	-0.0004
589.478	-0.0007
589.758	-0.0007
590.039	-0
590.319	0.0005
590.6	0.0009
590.88	0.0012
591.16	0.0009
591.441	0.0002
591.721	-0.0003
592.001	-0.0003
592.281	-0.0001
592.561	-0.0002
592.841	-0.0017
593.12	-0.0018
593.4	-0.0012
593.68	-0.0021
593.959	-0.0015
594.239	-0.0007
