Data from 03 0.5 mM K2Cr2O7 0.3 mM BQDS 1 M H2SO4 5 min_Absorbance_0168.txt Node
Date: Tue Dec 14 07:39:44 EST 2021
User: kwabilab-user
Spectrometer: HDX00518
Trigger mode: 0
Integration Time (sec): 5.000000E-2
Scans to average: 50
Nonlinearity correction enabled: false
Boxcar width: 0
Storing dark spectrum: false
XAxis mode: Wavelengths
Number of Pixels in Spectrum: 2068
>>>>>Begin Spectral Data<<<<<
195.27	-0.0201
195.642	-0.113
196.014	-0.0999
196.386	0.0397
196.758	-0.0374
197.129	-0.0218
197.501	-0.0179
197.872	0.0028
198.244	0.0178
198.615	0.0325
198.986	0.0175
199.357	0.0268
199.728	0.0251
200.099	0.0231
200.47	0.0083
200.841	0.0074
201.212	0.039
201.582	0.0204
201.953	0.0377
202.323	0.0262
202.694	0.0181
203.064	-0.0009
203.434	0.0186
203.804	0.0136
204.174	0.0251
204.544	0.0157
204.914	0.0212
205.284	0.0152
205.653	0.0071
206.023	0.0135
206.393	-0.0061
206.762	0.0191
207.131	0.014
207.501	0.0117
207.87	0.0344
208.239	0.0225
208.608	0.0193
208.977	-0.0018
209.346	0.0079
209.715	0.0225
210.083	-0.0045
210.452	0.0021
210.82	0.024
211.189	-0.0044
211.557	0.0384
211.925	-0.0113
212.294	0.0182
212.662	0.0311
213.03	-0.0067
213.398	0.0405
213.766	0.0399
214.133	0.0207
214.501	0.0316
214.869	0.028
215.236	0.0124
215.604	0.0248
215.971	0.0463
216.338	0.0488
216.705	0.0462
217.072	0.0489
217.439	0.0428
217.806	0.0453
218.173	0.0546
218.54	0.0298
218.907	0.0554
219.273	0.0799
219.64	0.0524
220.006	0.0853
220.373	0.0669
220.739	0.0953
221.105	0.1106
221.471	0.134
221.837	0.1469
222.203	0.1612
222.569	0.1697
222.935	0.1806
223.3	0.2004
223.666	0.2431
224.031	0.2474
224.397	0.2635
224.762	0.2852
225.127	0.3188
225.493	0.3325
225.858	0.3444
226.223	0.3772
226.588	0.4123
226.952	0.4262
227.317	0.4363
227.682	0.4646
228.046	0.4747
228.411	0.4938
228.775	0.5018
229.14	0.5301
229.504	0.5385
229.868	0.555
230.232	0.5539
230.596	0.5727
230.96	0.5866
231.324	0.6041
231.688	0.6022
232.052	0.6174
232.415	0.6063
232.779	0.6294
233.142	0.6347
233.505	0.632
233.869	0.6607
234.232	0.6477
234.595	0.6412
234.958	0.6491
235.321	0.6387
235.684	0.6527
236.047	0.6441
236.409	0.6322
236.772	0.6547
237.134	0.6491
237.497	0.6458
237.859	0.6531
238.222	0.639
238.584	0.6426
238.946	0.6266
239.308	0.6399
239.67	0.639
240.032	0.6329
240.393	0.6435
240.755	0.625
241.117	0.6334
241.478	0.6196
241.84	0.6306
242.201	0.6222
242.562	0.6212
242.924	0.6158
243.285	0.6132
243.646	0.6137
244.007	0.6073
244.368	0.6137
244.728	0.613
245.089	0.6121
245.45	0.6049
245.81	0.6096
246.171	0.5988
246.531	0.6002
246.891	0.5965
247.252	0.5895
247.612	0.5917
247.972	0.5925
248.332	0.5958
248.692	0.5887
249.051	0.5935
249.411	0.5947
249.771	0.5847
250.13	0.5865
250.49	0.5892
250.849	0.5852
251.208	0.5901
251.568	0.5883
251.927	0.5852
252.286	0.5902
252.645	0.5889
253.004	0.5871
253.363	0.5836
253.721	0.5818
254.08	0.5864
254.439	0.5766
254.797	0.5773
255.155	0.5788
255.514	0.5803
255.872	0.576
256.23	0.5744
256.588	0.5822
256.946	0.5714
257.304	0.571
257.662	0.5799
258.02	0.571
258.377	0.5746
258.735	0.5674
259.093	0.5677
259.45	0.5684
259.807	0.5639
260.165	0.5648
260.522	0.5631
260.879	0.559
261.236	0.5645
261.593	0.56
261.95	0.5518
262.306	0.5494
262.663	0.5427
263.02	0.5457
263.376	0.5484
263.733	0.542
264.089	0.5368
264.445	0.5422
264.802	0.5368
265.158	0.5372
265.514	0.5315
265.87	0.5288
266.226	0.5272
266.581	0.525
266.937	0.5239
267.293	0.5233
267.648	0.5173
268.004	0.5129
268.359	0.5159
268.714	0.5039
269.07	0.5054
269.425	0.4968
269.78	0.4972
270.135	0.4969
270.49	0.4928
270.844	0.4924
271.199	0.4857
271.554	0.4853
271.908	0.4803
272.263	0.4829
272.617	0.477
272.972	0.4765
273.326	0.4685
273.68	0.4618
274.034	0.465
274.388	0.4611
274.742	0.4569
275.096	0.4582
275.45	0.4523
275.803	0.4479
276.157	0.4399
276.51	0.4383
276.864	0.4338
277.217	0.4335
277.571	0.4307
277.924	0.4285
278.277	0.4218
278.63	0.4201
278.983	0.4135
279.336	0.4096
279.688	0.4032
280.041	0.402
280.394	0.4002
280.746	0.3938
281.099	0.3903
281.451	0.3858
281.803	0.3821
282.156	0.3792
282.508	0.3725
282.86	0.3699
283.212	0.3646
283.564	0.3617
283.916	0.3604
284.267	0.3544
284.619	0.3536
284.971	0.3472
285.322	0.3454
285.673	0.3379
286.025	0.3327
286.376	0.3315
286.727	0.3292
287.078	0.3231
287.429	0.3173
287.78	0.3168
288.131	0.3102
288.482	0.308
288.833	0.3019
289.183	0.2979
289.534	0.2962
289.884	0.2921
290.235	0.2867
290.585	0.2844
290.935	0.2789
291.285	0.2755
291.635	0.273
291.985	0.2691
292.335	0.2659
292.685	0.2636
293.035	0.2599
293.384	0.254
293.734	0.2516
294.083	0.2475
294.433	0.2437
294.782	0.2393
295.131	0.2358
295.48	0.2311
295.829	0.229
296.179	0.2251
296.527	0.2222
296.876	0.2184
297.225	0.2153
297.574	0.2133
297.922	0.2099
298.271	0.2059
298.619	0.2035
298.968	0.1996
299.316	0.196
299.664	0.1948
300.012	0.1918
300.36	0.1887
300.708	0.1864
301.056	0.1836
301.404	0.1793
301.752	0.1784
302.099	0.1751
302.447	0.1743
302.794	0.1711
303.142	0.1697
303.489	0.1663
303.836	0.1642
304.183	0.1623
304.531	0.1609
304.878	0.1609
305.224	0.1587
305.571	0.1555
305.918	0.1547
306.265	0.1527
306.611	0.1516
306.958	0.1515
307.304	0.1487
307.651	0.1485
307.997	0.1472
308.343	0.1463
308.689	0.145
309.035	0.1437
309.381	0.1435
309.727	0.1431
310.073	0.1426
310.419	0.1417
310.764	0.1402
311.11	0.1401
311.455	0.14
311.801	0.1396
312.146	0.1396
312.491	0.1393
312.837	0.1383
313.182	0.1389
313.527	0.1388
313.872	0.1383
314.216	0.139
314.561	0.1389
314.906	0.1391
315.251	0.1397
315.595	0.1397
315.94	0.1404
316.284	0.1408
316.628	0.142
316.972	0.1417
317.317	0.1426
317.661	0.1422
318.005	0.1435
318.348	0.1442
318.692	0.1457
319.036	0.1454
319.38	0.1458
319.723	0.1478
320.067	0.1494
320.41	0.1494
320.754	0.1511
321.097	0.1525
321.44	0.1527
321.783	0.1542
322.126	0.1566
322.469	0.1559
322.812	0.1576
323.155	0.1597
323.498	0.1602
323.84	0.1624
324.183	0.164
324.525	0.1657
324.868	0.1671
325.21	0.1672
325.552	0.17
325.894	0.1705
326.236	0.1721
326.578	0.1737
326.92	0.1761
327.262	0.1768
327.604	0.1784
327.946	0.1803
328.287	0.1819
328.629	0.1842
328.97	0.1857
329.312	0.1871
329.653	0.1881
329.994	0.1905
330.335	0.1915
330.676	0.1936
331.017	0.1952
331.358	0.1979
331.699	0.199
332.04	0.2005
332.38	0.2022
332.721	0.204
333.061	0.2059
333.402	0.208
333.742	0.2093
334.083	0.2112
334.423	0.212
334.763	0.2136
335.103	0.2147
335.443	0.2168
335.783	0.218
336.123	0.2195
336.462	0.221
336.802	0.2233
337.141	0.2241
337.481	0.2249
337.82	0.2265
338.16	0.2276
338.499	0.2299
338.838	0.2304
339.177	0.2329
339.516	0.2334
339.855	0.2353
340.194	0.2355
340.533	0.237
340.872	0.2377
341.21	0.2401
341.549	0.2399
341.887	0.2408
342.226	0.2414
342.564	0.2434
342.902	0.2435
343.24	0.2452
343.578	0.2446
343.916	0.2458
344.254	0.2463
344.592	0.2464
344.93	0.2468
345.268	0.2467
345.605	0.2474
345.943	0.2474
346.28	0.2482
346.618	0.2487
346.955	0.2492
347.292	0.2491
347.629	0.2489
347.966	0.2497
348.303	0.2497
348.64	0.2498
348.977	0.2503
349.314	0.2506
349.65	0.2511
349.987	0.2511
350.324	0.251
350.66	0.2512
350.996	0.2488
351.333	0.25
351.669	0.2487
352.005	0.2481
352.341	0.2481
352.677	0.2474
353.013	0.2462
353.349	0.2454
353.685	0.2442
354.02	0.2432
354.356	0.2414
354.691	0.2409
355.027	0.2394
355.362	0.24
355.697	0.2385
356.033	0.2374
356.368	0.2372
356.703	0.2357
357.038	0.2349
357.373	0.2337
357.707	0.2328
358.042	0.2322
358.377	0.2321
358.711	0.2304
359.046	0.2289
359.38	0.2277
359.715	0.2275
360.049	0.2261
360.383	0.2245
360.717	0.2236
361.051	0.2222
361.385	0.2205
361.719	0.2179
362.053	0.2179
362.387	0.2153
362.72	0.2144
363.054	0.2122
363.387	0.2108
363.721	0.2084
364.054	0.2061
364.387	0.205
364.721	0.2033
365.054	0.2008
365.387	0.1992
365.72	0.1975
366.053	0.1964
366.385	0.1942
366.718	0.1934
367.051	0.1913
367.383	0.1903
367.716	0.1891
368.048	0.1878
368.381	0.1855
368.713	0.1843
369.045	0.1835
369.377	0.1818
369.709	0.1805
370.041	0.1794
370.373	0.1783
370.705	0.1759
371.037	0.1743
371.368	0.1724
371.7	0.1726
372.031	0.1693
372.363	0.1677
372.694	0.1654
373.025	0.163
373.356	0.1612
373.688	0.1599
374.019	0.1573
374.35	0.1552
374.68	0.1534
375.011	0.1518
375.342	0.1492
375.673	0.148
376.003	0.1449
376.334	0.1436
376.664	0.1423
376.995	0.1406
377.325	0.1379
377.655	0.137
377.985	0.1353
378.315	0.1339
378.645	0.1334
378.975	0.1314
379.305	0.1292
379.635	0.1296
379.964	0.1285
380.294	0.1255
380.623	0.1252
380.953	0.1236
381.282	0.1216
381.611	0.1206
381.941	0.1189
382.27	0.1175
382.599	0.1159
382.928	0.1148
383.257	0.1131
383.585	0.1115
383.914	0.1107
384.243	0.1083
384.571	0.1064
384.9	0.1041
385.228	0.1037
385.557	0.1015
385.885	0.0996
386.213	0.098
386.541	0.0966
386.869	0.0953
387.197	0.0928
387.525	0.0913
387.853	0.0902
388.181	0.0887
388.508	0.0871
388.836	0.0851
389.164	0.0839
389.491	0.0834
389.818	0.0817
390.146	0.0811
390.473	0.08
390.8	0.0787
391.127	0.0769
391.454	0.0758
391.781	0.0745
392.108	0.0735
392.435	0.0725
392.761	0.0711
393.088	0.0708
393.415	0.0695
393.741	0.0694
394.067	0.0686
394.394	0.0677
394.72	0.0667
395.046	0.0651
395.372	0.0649
395.698	0.0642
396.024	0.063
396.35	0.0621
396.676	0.0617
397.001	0.0602
397.327	0.0585
397.653	0.0583
397.978	0.0572
398.303	0.0566
398.629	0.055
398.954	0.0542
399.279	0.0529
399.604	0.053
399.929	0.0526
400.254	0.052
400.579	0.0508
400.904	0.0512
401.229	0.0495
401.553	0.0492
401.878	0.0483
402.202	0.0477
402.527	0.0475
402.851	0.047
403.175	0.0459
403.5	0.046
403.824	0.046
404.148	0.0452
404.472	0.0444
404.796	0.0437
405.119	0.0434
405.443	0.0435
405.767	0.0423
406.09	0.0422
406.414	0.0423
406.737	0.0424
407.061	0.0416
407.384	0.0418
407.707	0.0413
408.03	0.0417
408.353	0.0416
408.676	0.0411
408.999	0.0409
409.322	0.0405
409.645	0.0408
409.968	0.0404
410.29	0.0402
410.613	0.0409
410.935	0.0402
411.258	0.0401
411.58	0.0394
411.902	0.0394
412.224	0.0393
412.546	0.0397
412.868	0.0392
413.19	0.0393
413.512	0.0389
413.834	0.0383
414.156	0.0392
414.477	0.0392
414.799	0.0385
415.121	0.0395
415.442	0.0391
415.763	0.0389
416.085	0.0388
416.406	0.0394
416.727	0.039
417.048	0.0387
417.369	0.0388
417.69	0.0388
418.011	0.0382
418.331	0.0391
418.652	0.0388
418.973	0.0385
419.293	0.0387
419.614	0.0387
419.934	0.0397
420.254	0.0387
420.574	0.0394
420.895	0.0391
421.215	0.0391
421.535	0.0385
421.855	0.0389
422.174	0.0386
422.494	0.0386
422.814	0.0385
423.134	0.0383
423.453	0.0394
423.773	0.039
424.092	0.0391
424.411	0.0388
424.731	0.0391
425.05	0.0386
425.369	0.0385
425.688	0.0388
426.007	0.039
426.326	0.039
426.644	0.0394
426.963	0.0396
427.282	0.0392
427.6	0.0391
427.919	0.0385
428.237	0.0389
428.556	0.0392
428.874	0.0394
429.192	0.0398
429.51	0.0399
429.828	0.0392
430.146	0.0398
430.464	0.0389
430.782	0.0393
431.1	0.0394
431.418	0.0392
431.735	0.0392
432.053	0.0395
432.37	0.0399
432.688	0.0392
433.005	0.039
433.322	0.0404
433.639	0.0399
433.957	0.0399
434.274	0.0394
434.591	0.0395
434.907	0.0391
435.224	0.0396
435.541	0.039
435.858	0.0401
436.174	0.0398
436.491	0.0394
436.807	0.0383
437.124	0.039
437.44	0.0397
437.756	0.0385
438.072	0.0397
438.388	0.0398
438.704	0.039
439.02	0.0395
439.336	0.0386
439.652	0.0384
439.968	0.0387
440.283	0.0376
440.599	0.0384
440.914	0.0395
441.23	0.0394
441.545	0.0389
441.86	0.0382
442.175	0.0386
442.491	0.0386
442.806	0.0385
443.121	0.039
443.435	0.038
443.75	0.038
444.065	0.0382
444.38	0.038
444.694	0.0379
445.009	0.0384
445.323	0.0383
445.638	0.0368
445.952	0.038
446.266	0.038
446.58	0.0375
446.894	0.0377
447.208	0.0378
447.522	0.0376
447.836	0.0373
448.15	0.0367
448.464	0.037
448.777	0.0369
449.091	0.0365
449.404	0.0362
449.718	0.0362
450.031	0.036
450.345	0.0361
450.658	0.0364
450.971	0.036
451.284	0.0365
451.597	0.0359
451.91	0.036
452.223	0.0358
452.535	0.0351
452.848	0.036
453.161	0.0347
453.473	0.0351
453.786	0.0349
454.098	0.0345
454.411	0.0354
454.723	0.0341
455.035	0.0342
455.347	0.0333
455.659	0.0338
455.971	0.0346
456.283	0.0336
456.595	0.0339
456.907	0.0341
457.218	0.0334
457.53	0.0328
457.841	0.0333
458.153	0.0336
458.464	0.0334
458.776	0.0328
459.087	0.0325
459.398	0.033
459.709	0.0328
460.02	0.0326
460.331	0.0314
460.642	0.0318
460.953	0.0313
461.263	0.0302
461.574	0.0309
461.885	0.0307
462.195	0.0306
462.506	0.0303
462.816	0.0299
463.126	0.0306
463.437	0.03
463.747	0.0296
464.057	0.0287
464.367	0.0292
464.677	0.0292
464.987	0.0285
465.296	0.0289
465.606	0.0273
465.916	0.0283
466.225	0.028
466.535	0.0279
466.844	0.0282
467.154	0.0286
467.463	0.0274
467.772	0.0277
468.081	0.0275
468.39	0.0272
468.699	0.0266
469.008	0.0268
469.317	0.0268
469.626	0.0252
469.935	0.0252
470.243	0.0254
470.552	0.0262
470.86	0.0255
471.169	0.0256
471.477	0.0252
471.785	0.0248
472.093	0.0243
472.402	0.0244
472.71	0.0247
473.018	0.0234
473.326	0.023
473.633	0.0239
473.941	0.0233
474.249	0.0228
474.556	0.0239
474.864	0.0234
475.171	0.0232
475.479	0.0222
475.786	0.0215
476.094	0.0222
476.401	0.0216
476.708	0.0215
477.015	0.0216
477.322	0.0218
477.629	0.0208
477.936	0.0212
478.242	0.0205
478.549	0.0207
478.856	0.0211
479.162	0.0199
479.469	0.0202
479.775	0.0197
480.081	0.0191
480.388	0.019
480.694	0.0198
481	0.0187
481.306	0.019
481.612	0.0185
481.918	0.0182
482.224	0.0175
482.53	0.0175
482.835	0.0183
483.141	0.0178
483.446	0.017
483.752	0.0165
484.057	0.0163
484.363	0.0165
484.668	0.0167
484.973	0.0153
485.278	0.0152
485.583	0.0155
485.888	0.0156
486.193	0.0146
486.498	0.0141
486.803	0.0146
487.107	0.0149
487.412	0.0145
487.717	0.0141
488.021	0.0138
488.325	0.0146
488.63	0.0148
488.934	0.0132
489.238	0.0136
489.542	0.0124
489.846	0.0135
490.15	0.0136
490.454	0.0125
490.758	0.0122
491.062	0.012
491.366	0.0127
491.669	0.0122
491.973	0.0124
492.276	0.0118
492.58	0.012
492.883	0.0117
493.186	0.0116
493.489	0.0112
493.792	0.0101
494.096	0.0104
494.399	0.0095
494.701	0.0111
495.004	0.0093
495.307	0.0103
495.61	0.0095
495.912	0.0103
496.215	0.0092
496.517	0.0095
496.82	0.009
497.122	0.0083
497.424	0.0092
497.727	0.0083
498.029	0.0075
498.331	0.0093
498.633	0.0089
498.935	0.0086
499.237	0.0069
499.538	0.0082
499.84	0.0081
500.142	0.0066
500.443	0.0071
500.745	0.0075
501.046	0.0067
501.348	0.0067
501.649	0.0055
501.95	0.0059
502.251	0.0059
502.552	0.006
502.853	0.0055
503.154	0.0054
503.455	0.0055
503.756	0.0055
504.057	0.0066
504.357	0.004
504.658	0.0059
504.958	0.0051
505.259	0.0054
505.559	0.0043
505.859	0.0046
506.16	0.0046
506.46	0.0045
506.76	0.0046
507.06	0.0044
507.36	0.0041
507.66	0.0043
507.96	0.0047
508.259	0.0039
508.559	0.0046
508.859	0.0042
509.158	0.0037
509.457	0.0039
509.757	0.0034
510.056	0.0036
510.355	0.0042
510.655	0.0029
510.954	0.0035
511.253	0.0029
511.552	0.0029
511.851	0.0037
512.149	0.0019
512.448	0.003
512.747	0.002
513.045	0.0016
513.344	0.0016
513.642	0.0015
513.941	0.0015
514.239	0.0027
514.537	0.0011
514.836	0.0019
515.134	0.0005
515.432	0.0032
515.73	0.0014
516.028	0.0016
516.326	0.0017
516.623	0.001
516.921	0.0006
517.219	0.0017
517.516	0.0009
517.814	0.0015
518.111	0.0012
518.409	0.0003
518.706	0.0005
519.003	0.0016
519.3	0.0014
519.597	-0
519.894	0.0015
520.191	0.0003
520.488	0.0011
520.785	-0.0001
521.082	0.0009
521.378	-0.0007
521.675	-0.0005
521.971	0.0002
522.268	0.0013
522.564	0.0001
522.861	0.0008
523.157	0.0011
523.453	0.0012
523.749	0.0006
524.045	0.0001
524.341	0.0011
524.637	-0.001
524.933	-0.0007
525.229	-0
525.524	-0.0011
525.82	-0.0006
526.115	-0.001
526.411	-0.0006
526.706	-0.0003
527.002	0.001
527.297	-0.0013
527.592	-0.0005
527.887	0.0013
528.182	0.0005
528.477	0.0001
528.772	0.0002
529.067	0.0001
529.362	-0.0006
529.657	-0.0008
529.951	-0
530.246	-0.0006
530.54	0.0003
530.835	-0.001
531.129	-0.001
531.423	-0.001
531.718	-0.001
532.012	-0.0004
532.306	-0.0005
532.6	-0.0013
532.894	-0.0006
533.188	0
533.482	-0.0009
533.775	-0.0012
534.069	-0.0002
534.363	-0.0018
534.656	-0.0012
534.95	-0.0001
535.243	-0.0014
535.536	-0.0008
535.83	-0.0025
536.123	-0.0008
536.416	-0.0011
536.709	-0.001
537.002	-0.0017
537.295	-0.0016
537.588	-0.0025
537.881	-0.0012
538.173	-0.0019
538.466	-0.0014
538.759	-0.0009
539.051	-0.001
539.344	-0.0018
539.636	-0.0015
539.928	-0.0005
540.22	-0.001
540.513	-0.0013
540.805	0.0003
541.097	-0.0011
541.389	-0.0016
541.681	-0.0009
541.972	-0.0005
542.264	0.0008
542.556	-0.0007
542.847	0.0008
543.139	-0.0004
543.431	-0.001
543.722	-0.0001
544.013	-0.0001
544.305	-0.0011
544.596	-0.0015
544.887	-0.0004
545.178	-0.0002
545.469	-0.0017
545.76	-0.0009
546.051	0.0006
546.342	-0.0006
546.632	-0.0008
546.923	-0.0015
547.214	-0.0014
547.504	-0.0011
547.795	-0.0016
548.085	-0.0019
548.375	-0.0017
548.666	-0.0024
548.956	-0.0016
549.246	-0.0001
549.536	-0.0004
549.826	0.0003
550.116	-0.0001
550.406	-0.0015
550.695	-0.0028
550.985	-0.0003
551.275	-0.0016
551.564	-0.0016
551.854	-0.0002
552.143	-0.0018
552.433	-0.0028
552.722	-0.0024
553.011	-0.0004
553.3	-0.0008
553.589	0.0006
553.879	-0.0009
554.167	-0.0015
554.456	0.0002
554.745	0.0004
555.034	-0.0011
555.323	0.0003
555.611	-0.0011
555.9	-0.0004
556.188	-0.0012
556.477	-0.0008
556.765	-0.0031
557.053	-0.0014
557.342	-0.0011
557.63	-0.0009
557.918	0.0002
558.206	-0.0001
558.494	0.0001
558.782	-0.0006
559.069	0.0007
559.357	0.0006
559.645	0.0002
559.932	-0.0004
560.22	-0.0006
560.507	-0.0016
560.795	-0.0019
561.082	-0.002
561.37	-0.0006
561.657	-0.0025
561.944	-0.001
562.231	-0.0011
562.518	-0.0001
562.805	0.0004
563.092	0.0003
563.379	-0.0002
563.665	0.0003
563.952	-0.0001
564.239	0.0006
564.525	0.0001
564.811	0.0011
565.098	-0.0004
565.384	-0.0002
565.67	0.0004
565.957	0.001
566.243	0.002
566.529	0.0001
566.815	-0.001
567.101	0.0013
567.387	0.0004
567.672	-0.0007
567.958	0.0001
568.244	-0.0008
568.529	0.0003
568.815	-0.0005
569.1	-0.0007
569.386	-0.0019
569.671	-0.0009
569.956	-0.0006
570.242	-0.0004
570.527	-0.001
570.812	-0.0008
571.097	0.0001
571.382	-0.0011
571.666	0.0004
571.951	-0.0011
572.236	-0.0003
572.521	-0.0003
572.805	-0.0009
573.09	-0.0008
573.374	-0.0011
573.659	-0.002
573.943	-0.0014
574.227	-0.0017
574.511	-0.0017
574.795	-0.0004
575.079	-0.0009
575.363	-0.001
575.647	-0.0015
575.931	-0.0006
576.215	-0.0012
576.499	-0.0016
576.782	-0.0019
577.066	-0.0006
577.349	-0.0002
577.633	-0.0008
577.916	-0.0015
578.2	-0.001
578.483	-0.0014
578.766	-0.0006
579.049	-0.0008
579.332	0.0005
579.615	0.0001
579.898	-0.0002
580.181	-0.0002
580.464	0.0009
580.746	0.0003
581.029	-0.0006
581.312	-0.0007
581.594	-0.0012
581.877	-0.002
582.159	-0.002
582.441	-0.0018
582.724	-0.0018
583.006	-0.0002
583.288	0.0001
583.57	0.0001
583.852	0.0006
584.134	0.0001
584.416	-0.0007
584.697	-0.0004
584.979	-0.0018
585.261	-0.0024
585.542	-0.0022
585.824	-0.0017
586.105	-0.0021
586.387	-0.0016
586.668	-0.0009
586.949	-0.0006
587.231	-0.0007
587.512	-0.0004
587.793	-0.0006
588.074	-0.0014
588.355	-0.0005
588.636	-0.001
588.916	-0.0017
589.197	-0.0007
589.478	-0.0001
589.758	-0.0002
590.039	-0.0001
590.319	-0.0008
590.6	0.0006
590.88	0.0009
591.16	0.0016
591.441	0.0011
591.721	0
592.001	-0.001
592.281	-0.0006
592.561	-0.0002
592.841	-0.0009
593.12	-0.0029
593.4	-0.0024
