Data from 03 0.5 mM K2Cr2O7 0.3 mM BQDS 1 M H2SO4 5 min_Absorbance_0115.txt Node
Date: Tue Dec 14 03:14:44 EST 2021
User: kwabilab-user
Spectrometer: HDX00518
Trigger mode: 0
Integration Time (sec): 5.000000E-2
Scans to average: 50
Nonlinearity correction enabled: false
Boxcar width: 0
Storing dark spectrum: false
XAxis mode: Wavelengths
Number of Pixels in Spectrum: 2068
>>>>>Begin Spectral Data<<<<<
195.27	0.0334
195.642	0.1639
196.014	0.2256
196.386	0.1263
196.758	0.0305
197.129	0.0225
197.501	-0.0078
197.872	0.0309
198.244	0.0398
198.615	0.0456
198.986	0.0552
199.357	0.0494
199.728	0.0531
200.099	0.0489
200.47	0.0336
200.841	0.0553
201.212	0.0497
201.582	0.0564
201.953	0.0533
202.323	0.0607
202.694	0.0487
203.064	0.0438
203.434	0.0517
203.804	0.0485
204.174	0.0497
204.544	0.0471
204.914	0.0507
205.284	0.0512
205.653	0.0331
206.023	0.0473
206.393	0.0189
206.762	0.0535
207.131	0.0499
207.501	0.0438
207.87	0.0718
208.239	0.052
208.608	0.0484
208.977	0.0519
209.346	0.0257
209.715	0.0418
210.083	0.0202
210.452	0.0366
210.82	0.0325
211.189	0.0443
211.557	0.0561
211.925	0.0362
212.294	0.0358
212.662	0.0262
213.03	0.0417
213.398	0.0784
213.766	0.0868
214.133	0.0416
214.501	0.0786
214.869	0.0597
215.236	0.0495
215.604	0.0675
215.971	0.0535
216.338	0.0628
216.705	0.0939
217.072	0.1046
217.439	0.0635
217.806	0.0828
218.173	0.0692
218.54	0.077
218.907	0.094
219.273	0.1
219.64	0.0781
220.006	0.1055
220.373	0.108
220.739	0.1229
221.105	0.1302
221.471	0.1394
221.837	0.1765
222.203	0.1957
222.569	0.2071
222.935	0.2262
223.3	0.2261
223.666	0.272
224.031	0.2896
224.397	0.2939
224.762	0.3164
225.127	0.3733
225.493	0.3678
225.858	0.4026
226.223	0.4141
226.588	0.4405
226.952	0.4603
227.317	0.5039
227.682	0.4956
228.046	0.5049
228.411	0.5294
228.775	0.5445
229.14	0.5624
229.504	0.5858
229.868	0.5891
230.232	0.6026
230.596	0.6021
230.96	0.6302
231.324	0.621
231.688	0.6456
232.052	0.6633
232.415	0.6622
232.779	0.6645
233.142	0.6611
233.505	0.6623
233.869	0.6774
234.232	0.6796
234.595	0.6704
234.958	0.6813
235.321	0.6831
235.684	0.6794
236.047	0.682
236.409	0.6665
236.772	0.681
237.134	0.6929
237.497	0.6787
237.859	0.6917
238.222	0.6811
238.584	0.6612
238.946	0.6754
239.308	0.6617
239.67	0.6736
240.032	0.67
240.393	0.6719
240.755	0.662
241.117	0.6609
241.478	0.6655
241.84	0.6638
242.201	0.658
242.562	0.6483
242.924	0.6391
243.285	0.6415
243.646	0.6553
244.007	0.6513
244.368	0.6401
244.728	0.6382
245.089	0.6435
245.45	0.6431
245.81	0.6408
246.171	0.6339
246.531	0.634
246.891	0.6297
247.252	0.634
247.612	0.6289
247.972	0.6285
248.332	0.636
248.692	0.6283
249.051	0.6324
249.411	0.6347
249.771	0.627
250.13	0.622
250.49	0.6245
250.849	0.6225
251.208	0.6236
251.568	0.6226
251.927	0.6252
252.286	0.6298
252.645	0.6286
253.004	0.627
253.363	0.6235
253.721	0.6221
254.08	0.623
254.439	0.6136
254.797	0.6194
255.155	0.615
255.514	0.6137
255.872	0.6163
256.23	0.608
256.588	0.6197
256.946	0.6173
257.304	0.6166
257.662	0.6125
258.02	0.6139
258.377	0.6087
258.735	0.6092
259.093	0.6041
259.45	0.6105
259.807	0.607
260.165	0.6052
260.522	0.6051
260.879	0.5984
261.236	0.5982
261.593	0.6006
261.95	0.5918
262.306	0.5906
262.663	0.5884
263.02	0.5877
263.376	0.586
263.733	0.5851
264.089	0.5796
264.445	0.5727
264.802	0.5789
265.158	0.576
265.514	0.569
265.87	0.5683
266.226	0.5631
266.581	0.5625
266.937	0.5643
267.293	0.5643
267.648	0.5518
268.004	0.5555
268.359	0.5511
268.714	0.5483
269.07	0.5425
269.425	0.5378
269.78	0.5376
270.135	0.5368
270.49	0.5381
270.844	0.5309
271.199	0.5274
271.554	0.5259
271.908	0.5207
272.263	0.5223
272.617	0.5166
272.972	0.5128
273.326	0.5078
273.68	0.5033
274.034	0.4984
274.388	0.4973
274.742	0.4958
275.096	0.4964
275.45	0.487
275.803	0.4818
276.157	0.4801
276.51	0.4759
276.864	0.4698
277.217	0.4725
277.571	0.4702
277.924	0.4596
278.277	0.4557
278.63	0.4542
278.983	0.4486
279.336	0.441
279.688	0.4386
280.041	0.4343
280.394	0.4321
280.746	0.4282
281.099	0.4224
281.451	0.4156
281.803	0.4126
282.156	0.4073
282.508	0.4031
282.86	0.4007
283.212	0.3956
283.564	0.3918
283.916	0.3872
284.267	0.3837
284.619	0.379
284.971	0.3754
285.322	0.3717
285.673	0.3636
286.025	0.3598
286.376	0.3584
286.727	0.3526
287.078	0.3512
287.429	0.3447
287.78	0.3411
288.131	0.3381
288.482	0.3325
288.833	0.3282
289.183	0.3228
289.534	0.3182
289.884	0.3142
290.235	0.3112
290.585	0.3068
290.935	0.3045
291.285	0.2979
291.635	0.2944
291.985	0.2906
292.335	0.2874
292.685	0.2842
293.035	0.2795
293.384	0.2742
293.734	0.2728
294.083	0.2677
294.433	0.2646
294.782	0.2598
295.131	0.254
295.48	0.2512
295.829	0.2476
296.179	0.2455
296.527	0.2423
296.876	0.2367
297.225	0.2338
297.574	0.2302
297.922	0.2283
298.271	0.2239
298.619	0.2213
298.968	0.2174
299.316	0.2142
299.664	0.2103
300.012	0.2086
300.36	0.2048
300.708	0.2015
301.056	0.1992
301.404	0.1961
301.752	0.1944
302.099	0.1917
302.447	0.1898
302.794	0.1864
303.142	0.1836
303.489	0.1795
303.836	0.1795
304.183	0.1769
304.531	0.1761
304.878	0.1729
305.224	0.1716
305.571	0.1693
305.918	0.1677
306.265	0.1666
306.611	0.164
306.958	0.1641
307.304	0.1614
307.651	0.1608
307.997	0.1595
308.343	0.1591
308.689	0.1571
309.035	0.157
309.381	0.1552
309.727	0.1543
310.073	0.1543
310.419	0.1535
310.764	0.1529
311.11	0.1521
311.455	0.1525
311.801	0.1514
312.146	0.1504
312.491	0.1513
312.837	0.1504
313.182	0.1503
313.527	0.1497
313.872	0.15
314.216	0.1504
314.561	0.1494
314.906	0.15
315.251	0.1506
315.595	0.152
315.94	0.1513
316.284	0.1516
316.628	0.152
316.972	0.1532
317.317	0.1528
317.661	0.1543
318.005	0.1545
318.348	0.1557
318.692	0.1563
319.036	0.1568
319.38	0.1569
319.723	0.1588
320.067	0.1591
320.41	0.161
320.754	0.1615
321.097	0.1633
321.44	0.1636
321.783	0.1652
322.126	0.167
322.469	0.1678
322.812	0.1687
323.155	0.1709
323.498	0.1725
323.84	0.1736
324.183	0.1753
324.525	0.1775
324.868	0.1786
325.21	0.1789
325.552	0.182
325.894	0.1827
326.236	0.1847
326.578	0.1858
326.92	0.1876
327.262	0.1897
327.604	0.1906
327.946	0.1922
328.287	0.1943
328.629	0.1965
328.97	0.1968
329.312	0.199
329.653	0.2
329.994	0.2025
330.335	0.2045
330.676	0.2066
331.017	0.2085
331.358	0.21
331.699	0.2115
332.04	0.2143
332.38	0.2157
332.721	0.217
333.061	0.2192
333.402	0.2211
333.742	0.2228
334.083	0.2241
334.423	0.225
334.763	0.2267
335.103	0.2285
335.443	0.2305
335.783	0.2315
336.123	0.2334
336.462	0.2346
336.802	0.2366
337.141	0.2375
337.481	0.2383
337.82	0.24
338.16	0.2413
338.499	0.2436
338.838	0.2445
339.177	0.2464
339.516	0.2479
339.855	0.2496
340.194	0.2501
340.533	0.2517
340.872	0.2526
341.21	0.2536
341.549	0.2549
341.887	0.2553
342.226	0.2567
342.564	0.2576
342.902	0.2584
343.24	0.2587
343.578	0.2594
343.916	0.2595
344.254	0.2608
344.592	0.2607
344.93	0.2609
345.268	0.2615
345.605	0.262
345.943	0.262
346.28	0.2627
346.618	0.2631
346.955	0.2629
347.292	0.2637
347.629	0.2634
347.966	0.2634
348.303	0.2647
348.64	0.2647
348.977	0.2636
349.314	0.2652
349.65	0.2643
349.987	0.265
350.324	0.2651
350.66	0.2638
350.996	0.2635
351.333	0.2635
351.669	0.263
352.005	0.2621
352.341	0.2615
352.677	0.2602
353.013	0.2599
353.349	0.2598
353.685	0.2581
354.02	0.2572
354.356	0.2549
354.691	0.2543
355.027	0.2532
355.362	0.2531
355.697	0.2521
356.033	0.2515
356.368	0.2496
356.703	0.2492
357.038	0.2482
357.373	0.2459
357.707	0.2461
358.042	0.245
358.377	0.2451
358.711	0.2425
359.046	0.2424
359.38	0.2407
359.715	0.2397
360.049	0.2384
360.383	0.2377
360.717	0.2361
361.051	0.2349
361.385	0.2339
361.719	0.2308
362.053	0.2302
362.387	0.2275
362.72	0.2253
363.054	0.224
363.387	0.2223
363.721	0.2205
364.054	0.2179
364.387	0.2167
364.721	0.2149
365.054	0.2124
365.387	0.211
365.72	0.2093
366.053	0.2071
366.385	0.205
366.718	0.2038
367.051	0.2024
367.383	0.201
367.716	0.199
368.048	0.1981
368.381	0.1969
368.713	0.1955
369.045	0.1943
369.377	0.1916
369.709	0.1908
370.041	0.189
370.373	0.1879
370.705	0.1857
371.037	0.1842
371.368	0.1829
371.7	0.1817
372.031	0.1794
372.363	0.1772
372.694	0.1751
373.025	0.1727
373.356	0.1708
373.688	0.1685
374.019	0.1665
374.35	0.1655
374.68	0.1625
375.011	0.1607
375.342	0.1582
375.673	0.1571
376.003	0.154
376.334	0.1521
376.664	0.1508
376.995	0.1491
377.325	0.1461
377.655	0.1451
377.985	0.1433
378.315	0.1421
378.645	0.1409
378.975	0.1398
379.305	0.138
379.635	0.1374
379.964	0.1363
380.294	0.1334
380.623	0.1331
380.953	0.1314
381.282	0.1292
381.611	0.1278
381.941	0.1263
382.27	0.1252
382.599	0.123
382.928	0.122
383.257	0.1207
383.585	0.1187
383.914	0.1178
384.243	0.1149
384.571	0.1135
384.9	0.1115
385.228	0.11
385.557	0.108
385.885	0.1063
386.213	0.1044
386.541	0.1033
386.869	0.1023
387.197	0.0991
387.525	0.0982
387.853	0.0965
388.181	0.0951
388.508	0.0932
388.836	0.0913
389.164	0.0902
389.491	0.0891
389.818	0.088
390.146	0.0868
390.473	0.0852
390.8	0.0841
391.127	0.0823
391.454	0.0811
391.781	0.0799
392.108	0.0792
392.435	0.0777
392.761	0.0771
393.088	0.0763
393.415	0.075
393.741	0.0747
394.067	0.0734
394.394	0.0725
394.72	0.0713
395.046	0.0702
395.372	0.0699
395.698	0.0689
396.024	0.0672
396.35	0.0667
396.676	0.0656
397.001	0.0642
397.327	0.0637
397.653	0.0625
397.978	0.0612
398.303	0.0606
398.629	0.0589
398.954	0.0582
399.279	0.0582
399.604	0.0572
399.929	0.0566
400.254	0.0559
400.579	0.0552
400.904	0.0538
401.229	0.0536
401.553	0.0531
401.878	0.0524
402.202	0.0519
402.527	0.0511
402.851	0.0509
403.175	0.0498
403.5	0.0496
403.824	0.049
404.148	0.0483
404.472	0.0483
404.796	0.0476
405.119	0.0476
405.443	0.047
405.767	0.0456
406.09	0.0462
406.414	0.046
406.737	0.0456
407.061	0.0455
407.384	0.0456
407.707	0.0451
408.03	0.0445
408.353	0.0449
408.676	0.0441
408.999	0.0447
409.322	0.0439
409.645	0.044
409.968	0.0437
410.29	0.0434
410.613	0.044
410.935	0.0437
411.258	0.0433
411.58	0.043
411.902	0.0429
412.224	0.0421
412.546	0.0429
412.868	0.0423
413.19	0.0426
413.512	0.0425
413.834	0.0417
414.156	0.0422
414.477	0.0426
414.799	0.0425
415.121	0.0426
415.442	0.0422
415.763	0.0418
416.085	0.0421
416.406	0.0422
416.727	0.0423
417.048	0.0419
417.369	0.0424
417.69	0.0419
418.011	0.0408
418.331	0.0422
418.652	0.0425
418.973	0.0423
419.293	0.0418
419.614	0.0417
419.934	0.0427
420.254	0.042
420.574	0.0423
420.895	0.0419
421.215	0.042
421.535	0.0419
421.855	0.0414
422.174	0.042
422.494	0.0415
422.814	0.0409
423.134	0.0417
423.453	0.0423
423.773	0.0419
424.092	0.0423
424.411	0.0417
424.731	0.0422
425.05	0.0416
425.369	0.0421
425.688	0.0425
426.007	0.0419
426.326	0.0417
426.644	0.0419
426.963	0.0421
427.282	0.0419
427.6	0.0418
427.919	0.0413
428.237	0.0422
428.556	0.042
428.874	0.0424
429.192	0.0428
429.51	0.0426
429.828	0.0426
430.146	0.0424
430.464	0.042
430.782	0.0419
431.1	0.0425
431.418	0.0417
431.735	0.0415
432.053	0.0424
432.37	0.0422
432.688	0.042
433.005	0.0423
433.322	0.0425
433.639	0.0423
433.957	0.0425
434.274	0.0428
434.591	0.0418
434.907	0.0418
435.224	0.0424
435.541	0.0418
435.858	0.0427
436.174	0.043
436.491	0.0419
436.807	0.041
437.124	0.0416
437.44	0.0416
437.756	0.0417
438.072	0.0421
438.388	0.0421
438.704	0.0422
439.02	0.0424
439.336	0.0415
439.652	0.0414
439.968	0.0411
440.283	0.0403
440.599	0.0412
440.914	0.0419
441.23	0.0419
441.545	0.0414
441.86	0.0411
442.175	0.0411
442.491	0.0419
442.806	0.0412
443.121	0.041
443.435	0.0409
443.75	0.0413
444.065	0.0406
444.38	0.0408
444.694	0.0415
445.009	0.0416
445.323	0.0405
445.638	0.0398
445.952	0.0411
446.266	0.041
446.58	0.0403
446.894	0.0407
447.208	0.0405
447.522	0.0393
447.836	0.04
448.15	0.0392
448.464	0.0395
448.777	0.0396
449.091	0.0394
449.404	0.0395
449.718	0.0391
450.031	0.0388
450.345	0.0388
450.658	0.0391
450.971	0.0394
451.284	0.0394
451.597	0.0384
451.91	0.0382
452.223	0.0384
452.535	0.0374
452.848	0.0385
453.161	0.0368
453.473	0.0381
453.786	0.0376
454.098	0.0369
454.411	0.0382
454.723	0.0373
455.035	0.0366
455.347	0.0361
455.659	0.0368
455.971	0.0374
456.283	0.0364
456.595	0.0363
456.907	0.0364
457.218	0.0361
457.53	0.0355
457.841	0.0354
458.153	0.0361
458.464	0.0355
458.776	0.0355
459.087	0.0344
459.398	0.0353
459.709	0.0346
460.02	0.0349
460.331	0.0338
460.642	0.0342
460.953	0.0345
461.263	0.0328
461.574	0.0334
461.885	0.0329
462.195	0.0332
462.506	0.0331
462.816	0.0327
463.126	0.0335
463.437	0.0327
463.747	0.0321
464.057	0.0318
464.367	0.0319
464.677	0.0311
464.987	0.0316
465.296	0.0314
465.606	0.0309
465.916	0.0307
466.225	0.0306
466.535	0.0305
466.844	0.03
467.154	0.0304
467.463	0.0295
467.772	0.0299
468.081	0.0289
468.39	0.0288
468.699	0.0287
469.008	0.0281
469.317	0.0284
469.626	0.0269
469.935	0.0272
470.243	0.0283
470.552	0.0279
470.86	0.0276
471.169	0.0275
471.477	0.0274
471.785	0.0273
472.093	0.0269
472.402	0.0263
472.71	0.0264
473.018	0.0261
473.326	0.0246
473.633	0.0259
473.941	0.0254
474.249	0.0245
474.556	0.0262
474.864	0.0251
475.171	0.0244
475.479	0.0241
475.786	0.0245
476.094	0.0238
476.401	0.0233
476.708	0.0236
477.015	0.0237
477.322	0.0229
477.629	0.023
477.936	0.0235
478.242	0.0219
478.549	0.0217
478.856	0.0221
479.162	0.0216
479.469	0.0228
479.775	0.0226
480.081	0.0216
480.388	0.0211
480.694	0.021
481	0.021
481.306	0.0203
481.612	0.0203
481.918	0.0206
482.224	0.0198
482.53	0.0193
482.835	0.0201
483.141	0.02
483.446	0.0192
483.752	0.0184
484.057	0.0191
484.363	0.0181
484.668	0.0179
484.973	0.0173
485.278	0.0172
485.583	0.0175
485.888	0.0172
486.193	0.016
486.498	0.0168
486.803	0.0159
487.107	0.0166
487.412	0.0153
487.717	0.0159
488.021	0.0149
488.325	0.0163
488.63	0.0165
488.934	0.0164
489.238	0.0158
489.542	0.0148
489.846	0.0151
490.15	0.0149
490.454	0.0149
490.758	0.0136
491.062	0.0145
491.366	0.0146
491.669	0.0137
491.973	0.0152
492.276	0.014
492.58	0.0139
492.883	0.0124
493.186	0.0131
493.489	0.0132
493.792	0.0124
494.096	0.012
494.399	0.0121
494.701	0.0122
495.004	0.0118
495.307	0.0118
495.61	0.0105
495.912	0.0115
496.215	0.0105
496.517	0.0095
496.82	0.0105
497.122	0.0102
497.424	0.0106
497.727	0.0099
498.029	0.0093
498.331	0.0105
498.633	0.0106
498.935	0.0105
499.237	0.0097
499.538	0.0094
499.84	0.009
500.142	0.0084
500.443	0.0086
500.745	0.0079
501.046	0.0069
501.348	0.0077
501.649	0.0073
501.95	0.0071
502.251	0.0071
502.552	0.0076
502.853	0.0068
503.154	0.0068
503.455	0.0067
503.756	0.0066
504.057	0.0074
504.357	0.0057
504.658	0.0073
504.958	0.0069
505.259	0.0066
505.559	0.0065
505.859	0.0064
506.16	0.006
506.46	0.0052
506.76	0.0063
507.06	0.0053
507.36	0.0046
507.66	0.0052
507.96	0.0061
508.259	0.0056
508.559	0.0057
508.859	0.0054
509.158	0.0047
509.457	0.0042
509.757	0.0042
510.056	0.0054
510.355	0.0051
510.655	0.004
510.954	0.0043
511.253	0.0037
511.552	0.0043
511.851	0.0037
512.149	0.0032
512.448	0.0029
512.747	0.004
513.045	0.0023
513.344	0.0024
513.642	0.0032
513.941	0.0021
514.239	0.0029
514.537	0.002
514.836	0.0035
515.134	0.0006
515.432	0.0034
515.73	0.0033
516.028	0.0022
516.326	0.0033
516.623	0.0028
516.921	0.001
517.219	0.0021
517.516	0.0029
517.814	0.0023
518.111	0.0025
518.409	0.0013
518.706	0.0014
519.003	0.0025
519.3	0.0018
519.597	0.0012
519.894	0.0021
520.191	0.0008
520.488	0.0011
520.785	0.0005
521.082	0.0017
521.378	0.0005
521.675	0.0011
521.971	0.001
522.268	0.0008
522.564	0.0017
522.861	0.002
523.157	0.0017
523.453	0.001
523.749	0.0016
524.045	0.0012
524.341	0.001
524.637	0.0005
524.933	-0.0005
525.229	0.001
525.524	-0.0001
525.82	0.0001
526.115	0.0001
526.411	0.0012
526.706	0.0007
527.002	0.0018
527.297	-0
527.592	0.0003
527.887	0.0019
528.182	0.0008
528.477	0.0011
528.772	0.0005
529.067	0.0002
529.362	0.0003
529.657	0.0001
529.951	0.0001
530.246	0.0003
530.54	0.0005
530.835	0
531.129	0.0001
531.423	0.0003
531.718	0.0009
532.012	0.0003
532.306	-0.0001
532.6	0.0001
532.894	-0.0007
533.188	0.0007
533.482	0.0002
533.775	0
534.069	-0.0011
534.363	-0.001
534.656	-0.0009
534.95	0.0002
535.243	-0.0005
535.536	0.0002
535.83	-0.0016
536.123	-0.0006
536.416	-0.0003
536.709	-0.0007
537.002	-0.0007
537.295	-0.0005
537.588	-0.0017
537.881	-0.0018
538.173	-0.0001
538.466	-0.0004
538.759	-0.0007
539.051	-0.0008
539.344	-0.0011
539.636	-0.001
539.928	-0.0009
540.22	-0.0004
540.513	0.0003
540.805	0.0006
541.097	-0.0014
541.389	0
541.681	0.0005
541.972	-0
542.264	0.0004
542.556	0.0001
542.847	0.001
543.139	0.0006
543.431	-0
543.722	0.0004
544.013	0.0007
544.305	-0.0005
544.596	-0.001
544.887	-0
545.178	-0.0003
545.469	-0.0017
545.76	-0.0009
546.051	0.0001
546.342	-0.0004
546.632	-0.001
546.923	-0.0007
547.214	-0.0013
547.504	-0.0012
547.795	-0.0017
548.085	-0.0012
548.375	-0.0015
548.666	-0.0017
548.956	-0.0006
549.246	-0.0005
549.536	-0.0006
549.826	0.0003
550.116	-0.0012
550.406	-0.0008
550.695	-0.0018
550.985	-0.0001
551.275	-0.0008
551.564	-0.0021
551.854	0.0003
552.143	-0.002
552.433	-0.0024
552.722	-0.0029
553.011	-0.0005
553.3	-0.0004
553.589	-0.0001
553.879	-0.0009
554.167	-0.0004
554.456	-0
554.745	0.0004
555.034	-0.0015
555.323	0.0003
555.611	-0.0007
555.9	-0.0003
556.188	-0.0013
556.477	-0.0004
556.765	-0.0009
557.053	-0.0013
557.342	0.0004
557.63	0.0006
557.918	0.0005
558.206	0.0011
558.494	0.0001
558.782	-0.0004
559.069	0.0016
559.357	0.0021
559.645	0.0001
559.932	0.0012
560.22	-0.0007
560.507	-0.0008
560.795	-0.0022
561.082	-0.0018
561.37	-0.0004
561.657	-0.0018
561.944	-0.0014
562.231	-0.0003
562.518	-0.0003
562.805	-0.0006
563.092	0.0004
563.379	0.0007
563.665	0.0008
563.952	0.0003
564.239	0.0005
564.525	0.0004
564.811	0.0012
565.098	0.0007
565.384	0.0005
565.67	0.0015
565.957	0.0012
566.243	0.002
566.529	0.0014
566.815	0.0006
567.101	0.0019
567.387	0.001
567.672	0.0007
567.958	0.001
568.244	0.0004
568.529	0.0013
568.815	0.0004
569.1	-0.0003
569.386	-0.0004
569.671	0.0004
569.956	-0.0002
570.242	0.0003
570.527	0.0001
570.812	0.0005
571.097	0.0001
571.382	-0.0007
571.666	0.0005
571.951	-0
572.236	-0.0002
572.521	-0.0002
572.805	-0.0001
573.09	-0.0007
573.374	-0.001
573.659	-0.0004
573.943	-0.0006
574.227	-0.0008
574.511	-0.0011
574.795	0.0004
575.079	0.0003
575.363	-0.0009
575.647	-0.0005
575.931	0.0002
576.215	-0.0003
576.499	-0.0009
576.782	-0.001
577.066	-0.0002
577.349	0.0002
577.633	-0.0003
577.916	-0.0003
578.2	-0.0001
578.483	-0.0006
578.766	0.0002
579.049	-0.0004
579.332	0.0011
579.615	0.0004
579.898	0.0003
580.181	0.0006
580.464	0.0012
580.746	0.0009
581.029	0.0001
581.312	-0.0007
581.594	-0.0012
581.877	-0.0012
582.159	-0.0005
582.441	-0.0008
582.724	-0.0009
583.006	0.001
583.288	0.0005
583.57	0.0005
583.852	0.0008
584.134	0.0006
584.416	0.0002
584.697	-0.0001
584.979	-0.0017
585.261	-0.0015
585.542	-0.0014
585.824	-0.0013
586.105	-0.0014
586.387	-0.0007
586.668	-0.0002
586.949	-0.0001
587.231	0.0008
587.512	0.0001
587.793	0.0004
588.074	-0.0005
588.355	0
588.636	-0.0006
588.916	-0.0012
589.197	-0.0002
589.478	0.0004
589.758	0.0001
590.039	0.0005
590.319	0.0005
590.6	0.0012
590.88	0.0016
591.16	0.0006
591.441	0.0005
591.721	0.0009
592.001	0
592.281	-0.0001
592.561	-0.0004
592.841	-0.0009
593.12	-0.0022
593.4	-0.0012
593.68	-0.0022
593.959	-0.0017
594.239	-0.0014
594.518	0
594.798	0.0001
595.077	-0.0004
595.356	-0.0007
