Data from 03 0.5 mM K2Cr2O7 0.3 mM BQDS 1 M H2SO4 5 min_Absorbance_0047.txt Node
Date: Mon Dec 13 21:34:46 EST 2021
User: kwabilab-user
Spectrometer: HDX00518
Trigger mode: 0
Integration Time (sec): 5.000000E-2
Scans to average: 50
Nonlinearity correction enabled: false
Boxcar width: 0
Storing dark spectrum: false
XAxis mode: Wavelengths
Number of Pixels in Spectrum: 2068
>>>>>Begin Spectral Data<<<<<
195.27	-0.0038
195.642	0.2137
196.014	0.0799
196.386	-0.0535
196.758	0.0074
197.129	0.0251
197.501	-0.008
197.872	0.0133
198.244	0.0493
198.615	0.0414
198.986	0.0352
199.357	0.0456
199.728	0.0335
200.099	0.0432
200.47	0.0479
200.841	0.0294
201.212	0.0494
201.582	0.0521
201.953	0.0523
202.323	0.0399
202.694	0.0379
203.064	0.0461
203.434	0.0562
203.804	0.047
204.174	0.0574
204.544	0.0567
204.914	0.0391
205.284	0.057
205.653	0.0288
206.023	0.0528
206.393	0.0159
206.762	0.0555
207.131	0.0415
207.501	0.0457
207.87	0.0611
208.239	0.057
208.608	0.0258
208.977	0.0207
209.346	0.0356
209.715	0.0317
210.083	0.0275
210.452	0.0209
210.82	0.0515
211.189	0.0285
211.557	0.0582
211.925	0.0452
212.294	0.0374
212.662	0.0393
213.03	0.035
213.398	0.0653
213.766	0.0498
214.133	0.0654
214.501	0.0742
214.869	0.0738
215.236	0.0537
215.604	0.038
215.971	0.047
216.338	0.0736
216.705	0.0808
217.072	0.0843
217.439	0.0624
217.806	0.0753
218.173	0.0663
218.54	0.0844
218.907	0.0872
219.273	0.0879
219.64	0.118
220.006	0.1076
220.373	0.112
220.739	0.128
221.105	0.135
221.471	0.1469
221.837	0.1636
222.203	0.1947
222.569	0.1918
222.935	0.2321
223.3	0.2361
223.666	0.2566
224.031	0.2962
224.397	0.3015
224.762	0.3247
225.127	0.3555
225.493	0.3762
225.858	0.3921
226.223	0.4304
226.588	0.4376
226.952	0.47
227.317	0.5068
227.682	0.5092
228.046	0.5007
228.411	0.5322
228.775	0.5427
229.14	0.5726
229.504	0.5898
229.868	0.5965
230.232	0.6063
230.596	0.6181
230.96	0.6532
231.324	0.6344
231.688	0.6438
232.052	0.6752
232.415	0.6882
232.779	0.6902
233.142	0.6795
233.505	0.6922
233.869	0.7027
234.232	0.7058
234.595	0.6961
234.958	0.7038
235.321	0.7184
235.684	0.7052
236.047	0.7124
236.409	0.7034
236.772	0.7104
237.134	0.7109
237.497	0.7092
237.859	0.7233
238.222	0.7105
238.584	0.7218
238.946	0.7171
239.308	0.7128
239.67	0.7084
240.032	0.7133
240.393	0.702
240.755	0.7053
241.117	0.711
241.478	0.712
241.84	0.6962
242.201	0.7029
242.562	0.6912
242.924	0.7007
243.285	0.6909
243.646	0.6924
244.007	0.6936
244.368	0.6989
244.728	0.7021
245.089	0.7015
245.45	0.6951
245.81	0.7
246.171	0.6936
246.531	0.6873
246.891	0.6805
247.252	0.6922
247.612	0.6845
247.972	0.6889
248.332	0.692
248.692	0.6922
249.051	0.6913
249.411	0.6973
249.771	0.6813
250.13	0.6843
250.49	0.6854
250.849	0.686
251.208	0.6861
251.568	0.6869
251.927	0.6826
252.286	0.6914
252.645	0.6855
253.004	0.692
253.363	0.685
253.721	0.6891
254.08	0.6844
254.439	0.6849
254.797	0.6758
255.155	0.6806
255.514	0.6834
255.872	0.6911
256.23	0.6844
256.588	0.6851
256.946	0.6803
257.304	0.6801
257.662	0.6789
258.02	0.6849
258.377	0.6836
258.735	0.6705
259.093	0.6753
259.45	0.6789
259.807	0.6753
260.165	0.6732
260.522	0.6805
260.879	0.6737
261.236	0.669
261.593	0.6688
261.95	0.6672
262.306	0.6661
262.663	0.6576
263.02	0.6645
263.376	0.6581
263.733	0.6548
264.089	0.6555
264.445	0.6525
264.802	0.6535
265.158	0.6465
265.514	0.6482
265.87	0.6417
266.226	0.6417
266.581	0.6439
266.937	0.6376
267.293	0.6379
267.648	0.6305
268.004	0.6314
268.359	0.6263
268.714	0.6217
269.07	0.6202
269.425	0.6187
269.78	0.6127
270.135	0.6124
270.49	0.605
270.844	0.6034
271.199	0.6031
271.554	0.5986
271.908	0.5955
272.263	0.5951
272.617	0.5857
272.972	0.5896
273.326	0.5812
273.68	0.5777
274.034	0.5715
274.388	0.5763
274.742	0.5655
275.096	0.568
275.45	0.5607
275.803	0.5536
276.157	0.5536
276.51	0.5463
276.864	0.544
277.217	0.5397
277.571	0.5375
277.924	0.5316
278.277	0.5274
278.63	0.5203
278.983	0.5159
279.336	0.5107
279.688	0.507
280.041	0.4983
280.394	0.502
280.746	0.4922
281.099	0.486
281.451	0.4842
281.803	0.4823
282.156	0.4718
282.508	0.4718
282.86	0.4679
283.212	0.4616
283.564	0.4548
283.916	0.4481
284.267	0.4467
284.619	0.4412
284.971	0.4369
285.322	0.4324
285.673	0.4278
286.025	0.4212
286.376	0.418
286.727	0.4144
287.078	0.4106
287.429	0.4043
287.78	0.4008
288.131	0.3942
288.482	0.3891
288.833	0.3855
289.183	0.381
289.534	0.3766
289.884	0.3723
290.235	0.3678
290.585	0.3631
290.935	0.3598
291.285	0.3523
291.635	0.348
291.985	0.3426
292.335	0.3398
292.685	0.3377
293.035	0.3313
293.384	0.3254
293.734	0.323
294.083	0.3178
294.433	0.3121
294.782	0.3074
295.131	0.3041
295.48	0.2993
295.829	0.2963
296.179	0.2916
296.527	0.2862
296.876	0.2833
297.225	0.2796
297.574	0.2743
297.922	0.2721
298.271	0.2672
298.619	0.2632
298.968	0.2586
299.316	0.2551
299.664	0.2516
300.012	0.2494
300.36	0.2444
300.708	0.2417
301.056	0.2379
301.404	0.2343
301.752	0.2322
302.099	0.229
302.447	0.2263
302.794	0.2231
303.142	0.2195
303.489	0.2165
303.836	0.2148
304.183	0.2128
304.531	0.2103
304.878	0.208
305.224	0.2058
305.571	0.2031
305.918	0.2008
306.265	0.1991
306.611	0.1967
306.958	0.1954
307.304	0.1933
307.651	0.1921
307.997	0.1903
308.343	0.1896
308.689	0.1868
309.035	0.1862
309.381	0.185
309.727	0.1841
310.073	0.1835
310.419	0.1821
310.764	0.1808
311.11	0.1802
311.455	0.1796
311.801	0.1783
312.146	0.1786
312.491	0.1787
312.837	0.177
313.182	0.1765
313.527	0.1777
313.872	0.177
314.216	0.1764
314.561	0.1775
314.906	0.1765
315.251	0.1775
315.595	0.177
315.94	0.1772
316.284	0.1782
316.628	0.1785
316.972	0.1784
317.317	0.1794
317.661	0.1799
318.005	0.1799
318.348	0.1822
318.692	0.1824
319.036	0.1823
319.38	0.1836
319.723	0.1847
320.067	0.1861
320.41	0.1871
320.754	0.1887
321.097	0.1899
321.44	0.19
321.783	0.1914
322.126	0.1934
322.469	0.1938
322.812	0.1952
323.155	0.1972
323.498	0.1981
323.84	0.1996
324.183	0.2017
324.525	0.2028
324.868	0.2047
325.21	0.205
325.552	0.2085
325.894	0.2093
326.236	0.2104
326.578	0.2122
326.92	0.2146
327.262	0.2163
327.604	0.2174
327.946	0.2191
328.287	0.2211
328.629	0.2231
328.97	0.225
329.312	0.2264
329.653	0.2275
329.994	0.2302
330.335	0.2309
330.676	0.234
331.017	0.2357
331.358	0.2379
331.699	0.2397
332.04	0.2412
332.38	0.2429
332.721	0.245
333.061	0.2475
333.402	0.2489
333.742	0.2509
334.083	0.2521
334.423	0.2534
334.763	0.2553
335.103	0.2571
335.443	0.2587
335.783	0.2601
336.123	0.2622
336.462	0.263
336.802	0.2655
337.141	0.2662
337.481	0.2671
337.82	0.2697
338.16	0.2704
338.499	0.2725
338.838	0.2739
339.177	0.2757
339.516	0.2769
339.855	0.2784
340.194	0.2798
340.533	0.2801
340.872	0.2816
341.21	0.2834
341.549	0.2841
341.887	0.2855
342.226	0.2859
342.564	0.287
342.902	0.2884
343.24	0.2884
343.578	0.2882
343.916	0.2898
344.254	0.2896
344.592	0.2903
344.93	0.2905
345.268	0.2909
345.605	0.2906
345.943	0.292
346.28	0.2916
346.618	0.2921
346.955	0.2927
347.292	0.2925
347.629	0.2924
347.966	0.2927
348.303	0.2938
348.64	0.2932
348.977	0.2929
349.314	0.2947
349.65	0.2936
349.987	0.2938
350.324	0.2944
350.66	0.2934
350.996	0.2919
351.333	0.2922
351.669	0.292
352.005	0.2913
352.341	0.2902
352.677	0.2883
353.013	0.2879
353.349	0.2871
353.685	0.2855
354.02	0.2844
354.356	0.2829
354.691	0.2814
355.027	0.2804
355.362	0.2809
355.697	0.2791
356.033	0.2777
356.368	0.2759
356.703	0.2749
357.038	0.2747
357.373	0.2734
357.707	0.2728
358.042	0.2703
358.377	0.2706
358.711	0.2682
359.046	0.268
359.38	0.2669
359.715	0.2651
360.049	0.2641
360.383	0.2627
360.717	0.2612
361.051	0.2593
361.385	0.2582
361.719	0.2559
362.053	0.2538
362.387	0.2522
362.72	0.2502
363.054	0.2473
363.387	0.2463
363.721	0.2438
364.054	0.2415
364.387	0.2397
364.721	0.2382
365.054	0.2351
365.387	0.2333
365.72	0.2315
366.053	0.2294
366.385	0.2279
366.718	0.2262
367.051	0.2252
367.383	0.2233
367.716	0.2217
368.048	0.2202
368.381	0.2175
368.713	0.2166
369.045	0.2153
369.377	0.2126
369.709	0.2119
370.041	0.2114
370.373	0.2091
370.705	0.2068
371.037	0.205
371.368	0.2028
371.7	0.2019
372.031	0.1992
372.363	0.1964
372.694	0.1939
373.025	0.192
373.356	0.1899
373.688	0.1877
374.019	0.1855
374.35	0.1834
374.68	0.1807
375.011	0.1784
375.342	0.1758
375.673	0.1737
376.003	0.1712
376.334	0.1701
376.664	0.1677
376.995	0.1661
377.325	0.1629
377.655	0.1618
377.985	0.1601
378.315	0.1581
378.645	0.1567
378.975	0.1555
379.305	0.1539
379.635	0.1528
379.964	0.1517
380.294	0.149
380.623	0.1486
380.953	0.1467
381.282	0.1446
381.611	0.1431
381.941	0.1414
382.27	0.1398
382.599	0.1378
382.928	0.1366
383.257	0.1347
383.585	0.1328
383.914	0.1314
384.243	0.1288
384.571	0.1276
384.9	0.1251
385.228	0.1231
385.557	0.121
385.885	0.1191
386.213	0.1176
386.541	0.116
386.869	0.1141
387.197	0.1118
387.525	0.1104
387.853	0.1082
388.181	0.107
388.508	0.1046
388.836	0.1028
389.164	0.1015
389.491	0.1007
389.818	0.099
390.146	0.0974
390.473	0.0963
390.8	0.0943
391.127	0.0927
391.454	0.0918
391.781	0.0901
392.108	0.09
392.435	0.0883
392.761	0.0872
393.088	0.0865
393.415	0.0847
393.741	0.0841
394.067	0.0834
394.394	0.0826
394.72	0.0808
395.046	0.0798
395.372	0.0791
395.698	0.0781
396.024	0.0773
396.35	0.076
396.676	0.0746
397.001	0.0739
397.327	0.0726
397.653	0.0714
397.978	0.0703
398.303	0.0692
398.629	0.0676
398.954	0.0665
399.279	0.0663
399.604	0.0657
399.929	0.0646
400.254	0.064
400.579	0.0629
400.904	0.0624
401.229	0.0615
401.553	0.0612
401.878	0.0604
402.202	0.059
402.527	0.0586
402.851	0.0584
403.175	0.0573
403.5	0.0571
403.824	0.0567
404.148	0.0563
404.472	0.0552
404.796	0.0549
405.119	0.0543
405.443	0.0543
405.767	0.0531
406.09	0.0533
406.414	0.0524
406.737	0.0524
407.061	0.0522
407.384	0.0521
407.707	0.0514
408.03	0.0511
408.353	0.0518
408.676	0.0505
408.999	0.0509
409.322	0.0506
409.645	0.0503
409.968	0.0498
410.29	0.0493
410.613	0.0501
410.935	0.0499
411.258	0.049
411.58	0.0487
411.902	0.0494
412.224	0.0485
412.546	0.049
412.868	0.0491
413.19	0.0488
413.512	0.0491
413.834	0.0483
414.156	0.0482
414.477	0.0486
414.799	0.0477
415.121	0.0484
415.442	0.0484
415.763	0.048
416.085	0.0475
416.406	0.0479
416.727	0.0482
417.048	0.0474
417.369	0.0472
417.69	0.047
418.011	0.047
418.331	0.0476
418.652	0.0482
418.973	0.048
419.293	0.0478
419.614	0.0477
419.934	0.0482
420.254	0.0478
420.574	0.0482
420.895	0.0483
421.215	0.0479
421.535	0.0478
421.855	0.0468
422.174	0.0475
422.494	0.0472
422.814	0.0477
423.134	0.0476
423.453	0.0476
423.773	0.0476
424.092	0.0472
424.411	0.0472
424.731	0.0476
425.05	0.0467
425.369	0.0477
425.688	0.0477
426.007	0.0471
426.326	0.0473
426.644	0.0479
426.963	0.0481
427.282	0.0474
427.6	0.0479
427.919	0.048
428.237	0.0481
428.556	0.0474
428.874	0.048
429.192	0.0485
429.51	0.0485
429.828	0.0475
430.146	0.0483
430.464	0.0475
430.782	0.0477
431.1	0.0482
431.418	0.0472
431.735	0.0474
432.053	0.0481
432.37	0.0481
432.688	0.0475
433.005	0.0478
433.322	0.0485
433.639	0.0478
433.957	0.0481
434.274	0.048
434.591	0.048
434.907	0.0477
435.224	0.0478
435.541	0.0478
435.858	0.0483
436.174	0.0487
436.491	0.0477
436.807	0.0467
437.124	0.0477
437.44	0.0477
437.756	0.047
438.072	0.0476
438.388	0.0482
438.704	0.0475
439.02	0.0472
439.336	0.0466
439.652	0.0468
439.968	0.0468
440.283	0.0466
440.599	0.0472
440.914	0.0476
441.23	0.0475
441.545	0.047
441.86	0.0464
442.175	0.0468
442.491	0.0467
442.806	0.0464
443.121	0.0462
443.435	0.0468
443.75	0.0462
444.065	0.0466
444.38	0.0468
444.694	0.0463
445.009	0.046
445.323	0.0461
445.638	0.0448
445.952	0.045
446.266	0.0464
446.58	0.0462
446.894	0.0459
447.208	0.0461
447.522	0.046
447.836	0.0456
448.15	0.0451
448.464	0.0452
448.777	0.045
449.091	0.0448
449.404	0.0448
449.718	0.0443
450.031	0.0441
450.345	0.0443
450.658	0.045
450.971	0.0443
451.284	0.0439
451.597	0.0431
451.91	0.0433
452.223	0.0436
452.535	0.0433
452.848	0.0435
453.161	0.0426
453.473	0.0433
453.786	0.0424
454.098	0.0428
454.411	0.0427
454.723	0.0417
455.035	0.0416
455.347	0.0413
455.659	0.0414
455.971	0.0418
456.283	0.0409
456.595	0.0411
456.907	0.0412
457.218	0.041
457.53	0.0404
457.841	0.0404
458.153	0.0406
458.464	0.0403
458.776	0.0406
459.087	0.0404
459.398	0.0403
459.709	0.0398
460.02	0.0396
460.331	0.0387
460.642	0.0394
460.953	0.0383
461.263	0.0378
461.574	0.0384
461.885	0.0383
462.195	0.0379
462.506	0.0379
462.816	0.0376
463.126	0.0372
463.437	0.0369
463.747	0.0365
464.057	0.0357
464.367	0.0363
464.677	0.0363
464.987	0.0357
465.296	0.0358
465.606	0.0348
465.916	0.0353
466.225	0.0351
466.535	0.0345
466.844	0.0345
467.154	0.0353
467.463	0.0343
467.772	0.0347
468.081	0.0343
468.39	0.0333
468.699	0.0332
469.008	0.0324
469.317	0.0319
469.626	0.0318
469.935	0.0316
470.243	0.0314
470.552	0.0317
470.86	0.0312
471.169	0.0315
471.477	0.0309
471.785	0.0315
472.093	0.0309
472.402	0.0299
472.71	0.0312
473.018	0.0298
473.326	0.0288
473.633	0.0301
473.941	0.0292
474.249	0.0288
474.556	0.0297
474.864	0.029
475.171	0.0282
475.479	0.0282
475.786	0.0277
476.094	0.0278
476.401	0.028
476.708	0.0272
477.015	0.0268
477.322	0.0267
477.629	0.0261
477.936	0.0264
478.242	0.0255
478.549	0.0266
478.856	0.0256
479.162	0.0248
479.469	0.0257
479.775	0.0253
480.081	0.0245
480.388	0.0245
480.694	0.0243
481	0.024
481.306	0.0235
481.612	0.0243
481.918	0.0237
482.224	0.0232
482.53	0.023
482.835	0.0225
483.141	0.0225
483.446	0.022
483.752	0.0222
484.057	0.021
484.363	0.0219
484.668	0.0223
484.973	0.0206
485.278	0.0208
485.583	0.0206
485.888	0.0208
486.193	0.0194
486.498	0.0193
486.803	0.0194
487.107	0.0195
487.412	0.019
487.717	0.019
488.021	0.0181
488.325	0.0202
488.63	0.0194
488.934	0.0188
489.238	0.0187
489.542	0.0172
489.846	0.0181
490.15	0.0182
490.454	0.0178
490.758	0.0169
491.062	0.0167
491.366	0.0164
491.669	0.0157
491.973	0.0163
492.276	0.0161
492.58	0.0162
492.883	0.0153
493.186	0.0153
493.489	0.015
493.792	0.014
494.096	0.015
494.399	0.0142
494.701	0.0145
495.004	0.0128
495.307	0.0144
495.61	0.0132
495.912	0.014
496.215	0.012
496.517	0.013
496.82	0.0129
497.122	0.0116
497.424	0.0133
497.727	0.0127
498.029	0.0112
498.331	0.0121
498.633	0.0114
498.935	0.0122
499.237	0.0116
499.538	0.0111
499.84	0.0108
500.142	0.0105
500.443	0.01
500.745	0.0098
501.046	0.0097
501.348	0.0099
501.649	0.0088
501.95	0.0087
502.251	0.009
502.552	0.0097
502.853	0.0086
503.154	0.0084
503.455	0.01
503.756	0.0089
504.057	0.0094
504.357	0.0086
504.658	0.0092
504.958	0.0089
505.259	0.0087
505.559	0.0075
505.859	0.007
506.16	0.007
506.46	0.0077
506.76	0.0078
507.06	0.0076
507.36	0.0069
507.66	0.0066
507.96	0.0079
508.259	0.0072
508.559	0.0077
508.859	0.0072
509.158	0.0062
509.457	0.0058
509.757	0.0066
510.056	0.0062
510.355	0.0067
510.655	0.0058
510.954	0.0062
511.253	0.0056
511.552	0.0062
511.851	0.0059
512.149	0.0039
512.448	0.0063
512.747	0.0053
513.045	0.0049
513.344	0.0039
513.642	0.0046
513.941	0.0038
514.239	0.0043
514.537	0.0033
514.836	0.0041
515.134	0.0028
515.432	0.0052
515.73	0.0028
516.028	0.0036
516.326	0.0037
516.623	0.004
516.921	0.0024
517.219	0.0036
517.516	0.003
517.814	0.0027
518.111	0.0037
518.409	0.0026
518.706	0.0025
519.003	0.0034
519.3	0.0032
519.597	0.0018
519.894	0.0033
520.191	0.0023
520.488	0.0027
520.785	0.0022
521.082	0.0021
521.378	0.0017
521.675	0.0014
521.971	0.0001
522.268	0.0025
522.564	0.0021
522.861	0.0023
523.157	0.0021
523.453	0.0027
523.749	0.0023
524.045	0.0024
524.341	0.0028
524.637	0.0012
524.933	0.0006
525.229	0.0018
525.524	0.0005
525.82	0.0005
526.115	0.0009
526.411	0.0006
526.706	0.0011
527.002	0.001
527.297	0.0004
527.592	0.0005
527.887	0.0022
528.182	0.0018
528.477	0.0014
528.772	0.0022
529.067	0.0011
529.362	0.0003
529.657	0.0016
529.951	0.0005
530.246	0.0003
530.54	0.0011
530.835	0.0006
531.129	0.0005
531.423	0.0004
531.718	0.0004
532.012	0.0008
532.306	-0.0001
532.6	-0.0007
532.894	-0.0006
533.188	0.0002
533.482	0.0001
533.775	0.0009
534.069	-0.0003
534.363	-0.0014
534.656	-0.0011
534.95	0.0007
535.243	0.0002
535.536	-0.0003
535.83	-0.0005
536.123	-0.0002
536.416	-0.0006
536.709	-0.0004
537.002	-0.0015
537.295	-0.0019
537.588	-0.0007
537.881	-0.0009
538.173	0.0002
538.466	-0.0007
538.759	0.0003
539.051	-0.0005
539.344	-0.0004
539.636	-0.0009
539.928	0.0008
540.22	0.0005
540.513	-0.0005
540.805	0.0007
541.097	-0.0008
541.389	-0.0009
541.681	0.0005
541.972	-0.0003
542.264	0.0012
542.556	0.0006
542.847	0.0016
543.139	0.0008
543.431	0.0004
543.722	0.0007
544.013	0.0005
544.305	-0.0003
544.596	-0.0004
544.887	0.0015
545.178	0.0013
545.469	-0.0005
545.76	0.0002
546.051	0.0008
546.342	-0.0001
546.632	-0.0012
546.923	-0.0003
547.214	-0.0003
547.504	-0.0006
547.795	-0.0014
548.085	-0.0016
548.375	-0.0005
548.666	-0.0015
548.956	-0.0012
549.246	0.0001
549.536	-0.0005
549.826	-0.0002
550.116	-0
550.406	-0.0008
550.695	-0.002
550.985	0.0004
551.275	-0.0015
551.564	-0.0006
551.854	-0.0006
552.143	-0.0023
552.433	-0.0019
552.722	-0.0025
553.011	0.0006
553.3	-0.001
553.589	-0.0005
553.879	-0.0013
554.167	-0.0008
554.456	-0.0001
554.745	0.0001
555.034	-0.0009
555.323	0.0009
555.611	-0
555.9	-0.0006
556.188	-0.0009
556.477	-0.0006
556.765	-0.0036
557.053	-0.0018
557.342	-0
557.63	-0.002
557.918	0.0001
558.206	0.0006
558.494	-0
558.782	0.0001
559.069	0.0008
559.357	0.0013
559.645	-0.0001
559.932	0
560.22	-0.0013
560.507	-0.0009
560.795	-0.0021
561.082	-0.0016
561.37	-0.0002
561.657	-0.0006
561.944	-0.0009
562.231	-0.0013
562.518	0.0001
562.805	-0.0003
563.092	-0.0004
563.379	0.0004
563.665	-0.0003
563.952	-0.0006
564.239	-0.0004
564.525	0.0003
564.811	0.0007
565.098	-0.0001
565.384	-0.0015
565.67	0.0009
565.957	0.0008
566.243	0.0007
566.529	0.0009
566.815	0
567.101	0.0012
567.387	-0
567.672	0.0004
567.958	0.001
568.244	0.0002
568.529	0.0008
568.815	0.0001
569.1	-0.0006
569.386	-0.0008
569.671	0.0003
569.956	0.0003
570.242	0.0007
570.527	-0.0006
570.812	-0.0003
571.097	0.0009
571.382	-0.0008
571.666	0.0012
571.951	-0.0003
572.236	-0.0004
572.521	-0
572.805	-0.0006
573.09	0.0005
573.374	-0.0006
573.659	-0.0005
573.943	-0
574.227	-0.0009
574.511	-0.0007
574.795	-0.0003
575.079	-0.0002
575.363	-0.0011
575.647	-0.0007
575.931	0.0001
576.215	-0.0011
576.499	-0.0009
576.782	-0.0011
577.066	-0.0006
577.349	-0.0001
577.633	-0.0002
577.916	-0.0005
578.2	-0.0003
578.483	-0.0007
578.766	-0.0006
579.049	-0.0003
579.332	0.0003
579.615	-0.0001
579.898	0.0001
580.181	0.0006
580.464	0.001
580.746	-0.0003
581.029	-0.0001
581.312	-0.0003
581.594	-0.0004
581.877	-0.0006
582.159	-0.0011
582.441	-0.0012
582.724	-0.0009
583.006	0.0002
583.288	0.0001
583.57	0.001
583.852	0.0005
584.134	0.001
584.416	0.0003
584.697	-0.0001
584.979	-0.0005
585.261	-0.0005
585.542	-0.001
585.824	-0.0007
586.105	-0.0013
586.387	-0.0005
586.668	-0.0012
586.949	0.0002
587.231	0.0002
587.512	-0.0004
587.793	0.0004
588.074	-0.0007
588.355	-0.0006
588.636	-0.0008
588.916	-0.0005
589.197	-0.0003
589.478	-0.0008
589.758	-0.0001
590.039	0.0004
590.319	-0.0003
590.6	0.0004
590.88	0.0006
591.16	0.0007
591.441	0.0009
591.721	-0.0003
592.001	-0.0001
592.281	-0.0001
592.561	-0
592.841	0.0002
593.12	-0.0015
593.4	-0.0009
593.68	-0.0019
593.959	-0.0011
594.239	-0.0015
594.518	-0.0006
594.798	0.0004
