Data from 03 0.5 mM K2Cr2O7 0.3 mM BQDS 1 M H2SO4 5 min_Absorbance_0054.txt Node
Date: Mon Dec 13 22:09:45 EST 2021
User: kwabilab-user
Spectrometer: HDX00518
Trigger mode: 0
Integration Time (sec): 5.000000E-2
Scans to average: 50
Nonlinearity correction enabled: false
Boxcar width: 0
Storing dark spectrum: false
XAxis mode: Wavelengths
Number of Pixels in Spectrum: 2068
>>>>>Begin Spectral Data<<<<<
195.27	-0.0577
195.642	0.324
196.014	-0.0111
196.386	0.2725
196.758	-0.0195
197.129	-0.0021
197.501	-0.0179
197.872	0.013
198.244	0.0283
198.615	0.0423
198.986	0.031
199.357	0.0454
199.728	0.042
200.099	0.033
200.47	0.0304
200.841	0.036
201.212	0.0484
201.582	0.0519
201.953	0.045
202.323	0.0412
202.694	0.0494
203.064	0.0334
203.434	0.0386
203.804	0.0133
204.174	0.0544
204.544	0.0451
204.914	0.0307
205.284	0.0574
205.653	0.0178
206.023	0.032
206.393	0.0151
206.762	0.0482
207.131	0.0517
207.501	0.0247
207.87	0.0516
208.239	0.044
208.608	0.0262
208.977	0.0239
209.346	0.0371
209.715	0.0219
210.083	0.0372
210.452	0.0324
210.82	0.045
211.189	-0.0039
211.557	0.0644
211.925	0.0218
212.294	0.0381
212.662	0.0386
213.03	0.0332
213.398	0.0521
213.766	0.0656
214.133	0.0398
214.501	0.0562
214.869	0.0469
215.236	0.0308
215.604	0.0595
215.971	0.044
216.338	0.0677
216.705	0.0813
217.072	0.0643
217.439	0.0448
217.806	0.0619
218.173	0.0505
218.54	0.0713
218.907	0.0768
219.273	0.0915
219.64	0.1083
220.006	0.108
220.373	0.0918
220.739	0.1226
221.105	0.1513
221.471	0.1485
221.837	0.1624
222.203	0.1821
222.569	0.2093
222.935	0.2194
223.3	0.2189
223.666	0.2554
224.031	0.2742
224.397	0.2886
224.762	0.3266
225.127	0.3499
225.493	0.3575
225.858	0.3972
226.223	0.4042
226.588	0.4253
226.952	0.4671
227.317	0.472
227.682	0.4999
228.046	0.4941
228.411	0.5251
228.775	0.5308
229.14	0.5683
229.504	0.5831
229.868	0.6019
230.232	0.6064
230.596	0.6179
230.96	0.6482
231.324	0.6221
231.688	0.6504
232.052	0.671
232.415	0.6687
232.779	0.6822
233.142	0.689
233.505	0.7011
233.869	0.7078
234.232	0.6953
234.595	0.6821
234.958	0.7011
235.321	0.6985
235.684	0.7085
236.047	0.7013
236.409	0.6851
236.772	0.7141
237.134	0.7069
237.497	0.6918
237.859	0.7298
238.222	0.7129
238.584	0.7065
238.946	0.6989
239.308	0.7039
239.67	0.7116
240.032	0.6849
240.393	0.6987
240.755	0.7012
241.117	0.6972
241.478	0.6966
241.84	0.6956
242.201	0.6976
242.562	0.6807
242.924	0.6766
243.285	0.6798
243.646	0.6834
244.007	0.6751
244.368	0.6812
244.728	0.6916
245.089	0.6891
245.45	0.6924
245.81	0.6894
246.171	0.6768
246.531	0.6755
246.891	0.6792
247.252	0.6718
247.612	0.6761
247.972	0.684
248.332	0.6829
248.692	0.6817
249.051	0.676
249.411	0.6808
249.771	0.6726
250.13	0.6746
250.49	0.677
250.849	0.6688
251.208	0.68
251.568	0.6707
251.927	0.6694
252.286	0.6759
252.645	0.6764
253.004	0.6753
253.363	0.6759
253.721	0.681
254.08	0.6767
254.439	0.6725
254.797	0.6687
255.155	0.6676
255.514	0.673
255.872	0.6766
256.23	0.6719
256.588	0.6826
256.946	0.6734
257.304	0.6678
257.662	0.6729
258.02	0.6642
258.377	0.6687
258.735	0.6628
259.093	0.6615
259.45	0.6618
259.807	0.6572
260.165	0.6622
260.522	0.6618
260.879	0.6565
261.236	0.6603
261.593	0.6612
261.95	0.6557
262.306	0.65
262.663	0.6511
263.02	0.6489
263.376	0.6449
263.733	0.6478
264.089	0.6407
264.445	0.6375
264.802	0.6332
265.158	0.6393
265.514	0.6347
265.87	0.6293
266.226	0.6297
266.581	0.6311
266.937	0.6196
267.293	0.6213
267.648	0.6078
268.004	0.6163
268.359	0.6043
268.714	0.6079
269.07	0.606
269.425	0.6026
269.78	0.5991
270.135	0.5964
270.49	0.5967
270.844	0.5918
271.199	0.5907
271.554	0.5867
271.908	0.5812
272.263	0.5827
272.617	0.574
272.972	0.5746
273.326	0.5672
273.68	0.5627
274.034	0.5611
274.388	0.5566
274.742	0.5545
275.096	0.5523
275.45	0.5472
275.803	0.5418
276.157	0.5444
276.51	0.5315
276.864	0.5303
277.217	0.5234
277.571	0.5217
277.924	0.5189
278.277	0.5112
278.63	0.5095
278.983	0.5054
279.336	0.4992
279.688	0.4942
280.041	0.4912
280.394	0.4849
280.746	0.4838
281.099	0.4797
281.451	0.4703
281.803	0.4683
282.156	0.4596
282.508	0.4574
282.86	0.4551
283.212	0.4493
283.564	0.4448
283.916	0.4413
284.267	0.4354
284.619	0.4291
284.971	0.4252
285.322	0.4228
285.673	0.4174
286.025	0.4127
286.376	0.4055
286.727	0.4047
287.078	0.3994
287.429	0.3953
287.78	0.3906
288.131	0.3842
288.482	0.3802
288.833	0.3746
289.183	0.3714
289.534	0.3651
289.884	0.3628
290.235	0.3583
290.585	0.3532
290.935	0.3487
291.285	0.3449
291.635	0.3381
291.985	0.3341
292.335	0.3298
292.685	0.3263
293.035	0.3229
293.384	0.3183
293.734	0.3143
294.083	0.3096
294.433	0.3041
294.782	0.3
295.131	0.2966
295.48	0.2914
295.829	0.2877
296.179	0.2842
296.527	0.2798
296.876	0.2753
297.225	0.2726
297.574	0.2675
297.922	0.2643
298.271	0.2595
298.619	0.2561
298.968	0.2532
299.316	0.2493
299.664	0.2461
300.012	0.2421
300.36	0.2383
300.708	0.2347
301.056	0.2318
301.404	0.2281
301.752	0.2265
302.099	0.2229
302.447	0.2199
302.794	0.2171
303.142	0.2143
303.489	0.2105
303.836	0.2087
304.183	0.2064
304.531	0.2039
304.878	0.2018
305.224	0.2014
305.571	0.1973
305.918	0.1952
306.265	0.1935
306.611	0.1912
306.958	0.1907
307.304	0.1875
307.651	0.1869
307.997	0.1849
308.343	0.1844
308.689	0.1825
309.035	0.1812
309.381	0.1805
309.727	0.1787
310.073	0.1783
310.419	0.1779
310.764	0.1759
311.11	0.1757
311.455	0.1753
311.801	0.1749
312.146	0.1737
312.491	0.1737
312.837	0.1729
313.182	0.1732
313.527	0.1732
313.872	0.1726
314.216	0.1728
314.561	0.1723
314.906	0.172
315.251	0.1725
315.595	0.1736
315.94	0.1735
316.284	0.1744
316.628	0.1746
316.972	0.1752
317.317	0.1759
317.661	0.1759
318.005	0.1764
318.348	0.1778
318.692	0.1785
319.036	0.1788
319.38	0.1797
319.723	0.1804
320.067	0.1815
320.41	0.182
320.754	0.1842
321.097	0.1853
321.44	0.186
321.783	0.1875
322.126	0.1892
322.469	0.1895
322.812	0.1905
323.155	0.1927
323.498	0.1941
323.84	0.196
324.183	0.1976
324.525	0.1985
324.868	0.2009
325.21	0.2018
325.552	0.2043
325.894	0.2046
326.236	0.2065
326.578	0.2083
326.92	0.2103
327.262	0.2119
327.604	0.2133
327.946	0.2154
328.287	0.2165
328.629	0.219
328.97	0.2199
329.312	0.2222
329.653	0.2232
329.994	0.2254
330.335	0.2273
330.676	0.2299
331.017	0.2318
331.358	0.2336
331.699	0.2354
332.04	0.2366
332.38	0.2383
332.721	0.2409
333.061	0.2426
333.402	0.245
333.742	0.2468
334.083	0.2488
334.423	0.2492
334.763	0.2516
335.103	0.253
335.443	0.2538
335.783	0.2559
336.123	0.2569
336.462	0.2587
336.802	0.2616
337.141	0.2617
337.481	0.2633
337.82	0.265
338.16	0.2662
338.499	0.2684
338.838	0.2689
339.177	0.2712
339.516	0.2722
339.855	0.2734
340.194	0.2753
340.533	0.2769
340.872	0.2777
341.21	0.278
341.549	0.2796
341.887	0.2808
342.226	0.2809
342.564	0.2831
342.902	0.2831
343.24	0.2838
343.578	0.2845
343.916	0.2854
344.254	0.2855
344.592	0.2861
344.93	0.2865
345.268	0.287
345.605	0.2874
345.943	0.2873
346.28	0.2881
346.618	0.2879
346.955	0.2878
347.292	0.2887
347.629	0.2877
347.966	0.2885
348.303	0.2892
348.64	0.2891
348.977	0.2888
349.314	0.2896
349.65	0.2892
349.987	0.2894
350.324	0.2892
350.66	0.2887
350.996	0.2885
351.333	0.2882
351.669	0.2881
352.005	0.2869
352.341	0.2859
352.677	0.2849
353.013	0.2835
353.349	0.2828
353.685	0.282
354.02	0.2803
354.356	0.2778
354.691	0.2783
355.027	0.2763
355.362	0.2761
355.697	0.2751
356.033	0.2751
356.368	0.2731
356.703	0.2721
357.038	0.2712
357.373	0.2693
357.707	0.2681
358.042	0.2675
358.377	0.2676
358.711	0.2653
359.046	0.2646
359.38	0.2631
359.715	0.2617
360.049	0.2603
360.383	0.2596
360.717	0.2576
361.051	0.2562
361.385	0.2544
361.719	0.2519
362.053	0.2498
362.387	0.2478
362.72	0.2466
363.054	0.2439
363.387	0.2422
363.721	0.2402
364.054	0.2375
364.387	0.236
364.721	0.2342
365.054	0.2323
365.387	0.2306
365.72	0.2284
366.053	0.2264
366.385	0.2245
366.718	0.2228
367.051	0.2216
367.383	0.2196
367.716	0.2182
368.048	0.2165
368.381	0.2149
368.713	0.214
369.045	0.2128
369.377	0.2099
369.709	0.2084
370.041	0.2074
370.373	0.2059
370.705	0.2032
371.037	0.2014
371.368	0.1995
371.7	0.1993
372.031	0.1966
372.363	0.1937
372.694	0.1914
373.025	0.1895
373.356	0.1867
373.688	0.1852
374.019	0.1828
374.35	0.1804
374.68	0.1779
375.011	0.1756
375.342	0.1731
375.673	0.1715
376.003	0.1686
376.334	0.1679
376.664	0.1647
376.995	0.1633
377.325	0.1601
377.655	0.1594
377.985	0.1579
378.315	0.1564
378.645	0.1543
378.975	0.1532
379.305	0.1511
379.635	0.1505
379.964	0.1492
380.294	0.147
380.623	0.1456
380.953	0.1446
381.282	0.1422
381.611	0.141
381.941	0.1393
382.27	0.1376
382.599	0.1357
382.928	0.1337
383.257	0.1328
383.585	0.1302
383.914	0.1295
384.243	0.1274
384.571	0.1253
384.9	0.1223
385.228	0.1217
385.557	0.1195
385.885	0.1168
386.213	0.1153
386.541	0.1138
386.869	0.1121
387.197	0.1097
387.525	0.108
387.853	0.1063
388.181	0.1053
388.508	0.1026
388.836	0.1012
389.164	0.0992
389.491	0.0986
389.818	0.0966
390.146	0.0957
390.473	0.0944
390.8	0.0934
391.127	0.0913
391.454	0.0901
391.781	0.0892
392.108	0.0882
392.435	0.0865
392.761	0.0852
393.088	0.0847
393.415	0.0835
393.741	0.083
394.067	0.0815
394.394	0.0809
394.72	0.0793
395.046	0.0791
395.372	0.078
395.698	0.0766
396.024	0.0759
396.35	0.0744
396.676	0.0729
397.001	0.0719
397.327	0.0712
397.653	0.0702
397.978	0.0686
398.303	0.0677
398.629	0.0664
398.954	0.0653
399.279	0.065
399.604	0.0642
399.929	0.0637
400.254	0.0626
400.579	0.0623
400.904	0.0608
401.229	0.0598
401.553	0.0595
401.878	0.0587
402.202	0.0576
402.527	0.0578
402.851	0.0572
403.175	0.0562
403.5	0.0556
403.824	0.0555
404.148	0.0551
404.472	0.0532
404.796	0.0535
405.119	0.0533
405.443	0.0529
405.767	0.0518
406.09	0.0517
406.414	0.0519
406.737	0.051
407.061	0.0511
407.384	0.051
407.707	0.0503
408.03	0.0501
408.353	0.0504
408.676	0.05
408.999	0.0495
409.322	0.0497
409.645	0.0496
409.968	0.0487
410.29	0.049
410.613	0.0491
410.935	0.0488
411.258	0.0489
411.58	0.0481
411.902	0.0483
412.224	0.0479
412.546	0.0479
412.868	0.0476
413.19	0.0482
413.512	0.0477
413.834	0.0466
414.156	0.0472
414.477	0.048
414.799	0.0472
415.121	0.0479
415.442	0.0472
415.763	0.0467
416.085	0.0468
416.406	0.0473
416.727	0.047
417.048	0.0465
417.369	0.0468
417.69	0.0467
418.011	0.0467
418.331	0.0466
418.652	0.0473
418.973	0.0469
419.293	0.0463
419.614	0.047
419.934	0.0471
420.254	0.0466
420.574	0.0471
420.895	0.0471
421.215	0.0466
421.535	0.0469
421.855	0.0465
422.174	0.0459
422.494	0.0462
422.814	0.0463
423.134	0.0469
423.453	0.047
423.773	0.0468
424.092	0.0465
424.411	0.0458
424.731	0.0469
425.05	0.0461
425.369	0.0469
425.688	0.0465
426.007	0.0463
426.326	0.0467
426.644	0.0468
426.963	0.0476
427.282	0.0467
427.6	0.0462
427.919	0.0461
428.237	0.0468
428.556	0.047
428.874	0.047
429.192	0.0473
429.51	0.0473
429.828	0.0474
430.146	0.0475
430.464	0.0458
430.782	0.0472
431.1	0.0473
431.418	0.0466
431.735	0.0464
432.053	0.0467
432.37	0.0472
432.688	0.0472
433.005	0.0465
433.322	0.0472
433.639	0.0467
433.957	0.0475
434.274	0.0471
434.591	0.0471
434.907	0.0458
435.224	0.0461
435.541	0.0465
435.858	0.0467
436.174	0.0472
436.491	0.0465
436.807	0.0459
437.124	0.0465
437.44	0.0469
437.756	0.0468
438.072	0.0468
438.388	0.0471
438.704	0.0464
439.02	0.0467
439.336	0.0459
439.652	0.046
439.968	0.0458
440.283	0.0454
440.599	0.045
440.914	0.0461
441.23	0.0466
441.545	0.046
441.86	0.0451
442.175	0.045
442.491	0.0456
442.806	0.0454
443.121	0.0453
443.435	0.0457
443.75	0.0456
444.065	0.0455
444.38	0.0444
444.694	0.0462
445.009	0.0456
445.323	0.0448
445.638	0.0441
445.952	0.0449
446.266	0.0451
446.58	0.0449
446.894	0.0448
447.208	0.0449
447.522	0.0448
447.836	0.0447
448.15	0.0434
448.464	0.0446
448.777	0.044
449.091	0.0435
449.404	0.044
449.718	0.0441
450.031	0.0431
450.345	0.0433
450.658	0.0433
450.971	0.0427
451.284	0.0431
451.597	0.042
451.91	0.0429
452.223	0.0423
452.535	0.0419
452.848	0.0427
453.161	0.0414
453.473	0.042
453.786	0.0416
454.098	0.0413
454.411	0.0417
454.723	0.0401
455.035	0.0411
455.347	0.0404
455.659	0.0412
455.971	0.0413
456.283	0.0404
456.595	0.0403
456.907	0.0404
457.218	0.0397
457.53	0.0388
457.841	0.0401
458.153	0.0404
458.464	0.039
458.776	0.0391
459.087	0.0386
459.398	0.0392
459.709	0.0393
460.02	0.0388
460.331	0.0377
460.642	0.0386
460.953	0.0379
461.263	0.0379
461.574	0.0368
461.885	0.0366
462.195	0.0373
462.506	0.037
462.816	0.0372
463.126	0.0368
463.437	0.0362
463.747	0.035
464.057	0.0346
464.367	0.0356
464.677	0.0351
464.987	0.0353
465.296	0.0353
465.606	0.0344
465.916	0.0349
466.225	0.0343
466.535	0.0344
466.844	0.0333
467.154	0.0343
467.463	0.0335
467.772	0.0327
468.081	0.0326
468.39	0.0322
468.699	0.0331
469.008	0.032
469.317	0.0315
469.626	0.0303
469.935	0.0308
470.243	0.0312
470.552	0.0311
470.86	0.0305
471.169	0.0311
471.477	0.0304
471.785	0.0299
472.093	0.0303
472.402	0.0294
472.71	0.0303
473.018	0.0292
473.326	0.0286
473.633	0.029
473.941	0.0292
474.249	0.0279
474.556	0.029
474.864	0.029
475.171	0.0276
475.479	0.0275
475.786	0.0271
476.094	0.0268
476.401	0.0262
476.708	0.027
477.015	0.0268
477.322	0.0262
477.629	0.0261
477.936	0.0264
478.242	0.0246
478.549	0.0247
478.856	0.0253
479.162	0.0247
479.469	0.0248
479.775	0.0253
480.081	0.0246
480.388	0.0234
480.694	0.0235
481	0.023
481.306	0.0228
481.612	0.0228
481.918	0.0228
482.224	0.0224
482.53	0.0227
482.835	0.0216
483.141	0.0218
483.446	0.0221
483.752	0.0218
484.057	0.0207
484.363	0.0213
484.668	0.0206
484.973	0.02
485.278	0.0201
485.583	0.0201
485.888	0.0193
486.193	0.0189
486.498	0.0183
486.803	0.0189
487.107	0.0181
487.412	0.0186
487.717	0.0179
488.021	0.0178
488.325	0.0192
488.63	0.0178
488.934	0.0185
489.238	0.0179
489.542	0.0167
489.846	0.0169
490.15	0.017
490.454	0.0163
490.758	0.0161
491.062	0.0155
491.366	0.0157
491.669	0.0155
491.973	0.0162
492.276	0.0154
492.58	0.0152
492.883	0.0147
493.186	0.0154
493.489	0.014
493.792	0.0138
494.096	0.0138
494.399	0.0136
494.701	0.0133
495.004	0.0124
495.307	0.0133
495.61	0.0133
495.912	0.0133
496.215	0.0122
496.517	0.0127
496.82	0.0122
497.122	0.0117
497.424	0.012
497.727	0.0111
498.029	0.0107
498.331	0.0121
498.633	0.0119
498.935	0.0112
499.237	0.01
499.538	0.0102
499.84	0.0107
500.142	0.0098
500.443	0.0099
500.745	0.0092
501.046	0.0086
501.348	0.01
501.649	0.0086
501.95	0.0083
502.251	0.0083
502.552	0.0086
502.853	0.0084
503.154	0.0077
503.455	0.0089
503.756	0.0088
504.057	0.0089
504.357	0.0071
504.658	0.0095
504.958	0.0086
505.259	0.0083
505.559	0.007
505.859	0.0072
506.16	0.0079
506.46	0.0069
506.76	0.0073
507.06	0.007
507.36	0.0065
507.66	0.0067
507.96	0.0074
508.259	0.0065
508.559	0.007
508.859	0.0062
509.158	0.0065
509.457	0.0056
509.757	0.0063
510.056	0.0064
510.355	0.006
510.655	0.0058
510.954	0.0059
511.253	0.0061
511.552	0.0054
511.851	0.0056
512.149	0.0039
512.448	0.0049
512.747	0.0047
513.045	0.004
513.344	0.0045
513.642	0.004
513.941	0.0033
514.239	0.0043
514.537	0.0027
514.836	0.0039
515.134	0.0018
515.432	0.0044
515.73	0.0038
516.028	0.0033
516.326	0.0035
516.623	0.0042
516.921	0.0012
517.219	0.0031
517.516	0.0028
517.814	0.0033
518.111	0.0028
518.409	0.0009
518.706	0.0023
519.003	0.0038
519.3	0.002
519.597	0.0019
519.894	0.0021
520.191	0.0019
520.488	0.0022
520.785	0.0016
521.082	0.0018
521.378	0.0015
521.675	0.0016
521.971	0.001
522.268	0.0015
522.564	0.0016
522.861	0.0022
523.157	0.0022
523.453	0.0019
523.749	0.0018
524.045	0.0015
524.341	0.002
524.637	0.0006
524.933	0.0012
525.229	0.001
525.524	0
525.82	-0.0005
526.115	-0.0006
526.411	0.0013
526.706	0.0011
527.002	0.0016
527.297	-0.0001
527.592	0.001
527.887	0.0016
528.182	0.0015
528.477	0.0021
528.772	0.0022
529.067	0.0005
529.362	0.0004
529.657	0.0004
529.951	0.0011
530.246	-0.0001
530.54	0.0009
530.835	0.0004
531.129	0.0004
531.423	0.0009
531.718	-0
532.012	-0
532.306	-0.0004
532.6	-0.0008
532.894	-0.0001
533.188	0.0007
533.482	0.0001
533.775	-0.0003
534.069	-0.0002
534.363	-0.0017
534.656	-0.0022
534.95	-0.0005
535.243	-0.0004
535.536	0.0001
535.83	-0.0012
536.123	-0.0005
536.416	-0.0002
536.709	-0.0005
537.002	-0.0001
537.295	-0.0006
537.588	-0.0004
537.881	-0.0012
538.173	-0.0001
538.466	-0.0005
538.759	-0.0004
539.051	-0.0002
539.344	-0.001
539.636	0.0002
539.928	0.0003
540.22	-0.001
540.513	-0.0006
540.805	-0.0001
541.097	-0.0013
541.389	-0.0009
541.681	-0.0003
541.972	-0.0004
542.264	-0.0002
542.556	-0.0005
542.847	-0.0002
543.139	0.0001
543.431	-0.0004
543.722	-0.0009
544.013	-0
544.305	-0.0015
544.596	-0.0014
544.887	0
545.178	0.0002
545.469	-0.002
545.76	-0.0018
546.051	0.0001
546.342	-0.0017
546.632	-0.0021
546.923	-0.0008
547.214	-0.0008
547.504	-0.0013
547.795	-0.0011
548.085	-0.0016
548.375	-0.0013
548.666	-0.0022
548.956	-0.0015
549.246	-0.001
549.536	-0.0014
549.826	-0.0006
550.116	-0.0017
550.406	-0.0012
550.695	-0.0022
550.985	-0.0011
551.275	-0.0008
551.564	-0.0017
551.854	-0.0016
552.143	-0.0018
552.433	-0.0027
552.722	-0.0027
553.011	-0.0008
553.3	-0.0006
553.589	-0.0004
553.879	-0.0006
554.167	-0.0006
554.456	0.0002
554.745	-0.0004
555.034	-0.0019
555.323	0.0003
555.611	-0.0001
555.9	-0.0008
556.188	-0.002
556.477	-0.0007
556.765	-0.0032
557.053	-0.0019
557.342	-0.0016
557.63	-0.0008
557.918	0.0003
558.206	0.0001
558.494	-0.0002
558.782	-0.0006
559.069	-0.0002
559.357	0.0002
559.645	-0.0011
559.932	-0.0006
560.22	-0.0002
560.507	-0.0015
560.795	-0.0018
561.082	-0.0018
561.37	-0.0001
561.657	-0.0016
561.944	-0.0006
562.231	-0.0008
562.518	-0.0008
562.805	-0.0007
563.092	-0.0005
563.379	-0.0008
563.665	-0.0001
563.952	-0.0002
564.239	-0.0001
564.525	-0.0005
564.811	0.001
565.098	-0.0004
565.384	-0.0006
565.67	-0.0007
565.957	0.0003
566.243	0.0021
566.529	-0.0001
566.815	0.0001
567.101	0.0009
567.387	0.0009
567.672	-0.0005
567.958	0.0012
568.244	0.0004
568.529	0.0007
568.815	-0.0003
569.1	-0.0004
569.386	-0.0011
569.671	-0.0002
569.956	-0.0001
570.242	-0.0002
570.527	-0.0002
570.812	0.0006
571.097	0.0001
571.382	-0.0005
571.666	0.0008
571.951	-0
572.236	-0.001
572.521	-0.0004
572.805	-0.0006
573.09	-0.0009
573.374	-0.0012
573.659	-0.0008
573.943	-0.0009
574.227	-0.0008
574.511	-0.0006
574.795	-0.0006
575.079	0.0002
575.363	-0.0008
575.647	-0.0008
575.931	-0.0004
576.215	-0.0014
576.499	-0.001
576.782	-0.0013
577.066	-0.0011
577.349	0.0004
577.633	0.0001
577.916	-0.0005
578.2	-0.0001
578.483	-0.0011
578.766	-0.0011
579.049	-0.0004
579.332	0.0001
579.615	-0.0002
579.898	-0.0001
580.181	-0.0001
580.464	0.0001
580.746	-0
581.029	-0.0006
581.312	-0.0004
581.594	-0.0008
581.877	-0.0011
582.159	-0.0015
582.441	-0.0014
582.724	-0.0009
583.006	-0.0004
583.288	-0.0002
583.57	0.0001
583.852	0.0002
584.134	0.0005
584.416	0.0005
584.697	-0.0003
584.979	-0.0005
585.261	-0.0013
585.542	-0.001
585.824	-0.0013
586.105	-0.0014
586.387	-0.0018
586.668	-0.0009
586.949	-0.0002
587.231	-0.0006
587.512	-0.0002
587.793	-0.0004
588.074	-0.001
588.355	-0.0004
588.636	-0.0006
588.916	-0.0011
589.197	-0.0008
589.478	-0.0006
589.758	-0.0003
590.039	0.0005
590.319	-0.0001
590.6	-0.0002
590.88	0.001
591.16	0.0004
591.441	0.0003
591.721	-0.0003
592.001	-0.0008
592.281	-0.0005
592.561	-0.0003
592.841	-0.0006
593.12	-0.0017
593.4	-0.0012
593.68	-0.0018
