Data from 03 0.5 mM K2Cr2O7 0.3 mM BQDS 1 M H2SO4 5 min_Absorbance_0143.txt Node
Date: Tue Dec 14 05:34:45 EST 2021
User: kwabilab-user
Spectrometer: HDX00518
Trigger mode: 0
Integration Time (sec): 5.000000E-2
Scans to average: 50
Nonlinearity correction enabled: false
Boxcar width: 0
Storing dark spectrum: false
XAxis mode: Wavelengths
Number of Pixels in Spectrum: 2068
>>>>>Begin Spectral Data<<<<<
195.27	-0.1135
195.642	-0.0874
196.014	-0.0411
196.386	-0.0788
196.758	-0.0898
197.129	-0.0727
197.501	-0.0621
197.872	-0.0299
198.244	-0.0056
198.615	0.0079
198.986	-0.0205
199.357	0.0061
199.728	-0.0005
200.099	0.0087
200.47	-0.0256
200.841	-0.0204
201.212	0.004
201.582	-0.0041
201.953	0.0061
202.323	0.0073
202.694	-0.0084
203.064	-0.0076
203.434	-0.0007
203.804	-0.0286
204.174	-0.0177
204.544	-0.0102
204.914	-0.0111
205.284	-0.0047
205.653	-0.0183
206.023	-0.0108
206.393	-0.0362
206.762	0.0052
207.131	-0.0041
207.501	-0.0257
207.87	-0.0084
208.239	-0.0015
208.608	-0.0401
208.977	-0.0219
209.346	-0.0216
209.715	-0.0217
210.083	-0.0278
210.452	-0.0272
210.82	-0.0167
211.189	-0.038
211.557	0.0048
211.925	-0.0477
212.294	-0.0211
212.662	-0.0104
213.03	-0.0268
213.398	-0.0058
213.766	0.0018
214.133	-0.0013
214.501	-0.015
214.869	-0.0126
215.236	-0.0158
215.604	-0.0092
215.971	-0.0124
216.338	-0.0075
216.705	0.0235
217.072	0.0157
217.439	-0.0104
217.806	0.0015
218.173	0.003
218.54	0.006
218.907	0.0235
219.273	0.0186
219.64	0.0159
220.006	0.0463
220.373	0.0428
220.739	0.0626
221.105	0.0797
221.471	0.0693
221.837	0.0997
222.203	0.1236
222.569	0.1313
222.935	0.1551
223.3	0.1662
223.666	0.2131
224.031	0.2196
224.397	0.2362
224.762	0.2509
225.127	0.2889
225.493	0.2991
225.858	0.3228
226.223	0.3535
226.588	0.3825
226.952	0.3926
227.317	0.4091
227.682	0.4223
228.046	0.4371
228.411	0.4545
228.775	0.4799
229.14	0.4875
229.504	0.524
229.868	0.538
230.232	0.543
230.596	0.5521
230.96	0.5611
231.324	0.5668
231.688	0.5763
232.052	0.5781
232.415	0.5866
232.779	0.6017
233.142	0.6128
233.505	0.6081
233.869	0.6193
234.232	0.6311
234.595	0.6327
234.958	0.6355
235.321	0.6399
235.684	0.6204
236.047	0.6196
236.409	0.6294
236.772	0.6369
237.134	0.6192
237.497	0.6322
237.859	0.6375
238.222	0.6343
238.584	0.6359
238.946	0.6279
239.308	0.6244
239.67	0.627
240.032	0.6228
240.393	0.63
240.755	0.6254
241.117	0.6214
241.478	0.6265
241.84	0.6255
242.201	0.611
242.562	0.6074
242.924	0.6122
243.285	0.607
243.646	0.6116
244.007	0.6064
244.368	0.606
244.728	0.6052
245.089	0.6059
245.45	0.5998
245.81	0.598
246.171	0.5959
246.531	0.5966
246.891	0.5928
247.252	0.5962
247.612	0.5928
247.972	0.597
248.332	0.5931
248.692	0.5922
249.051	0.5962
249.411	0.593
249.771	0.5887
250.13	0.5895
250.49	0.5914
250.849	0.5903
251.208	0.5866
251.568	0.5827
251.927	0.593
252.286	0.5912
252.645	0.5926
253.004	0.5963
253.363	0.5864
253.721	0.5879
254.08	0.5869
254.439	0.5853
254.797	0.5796
255.155	0.5823
255.514	0.5895
255.872	0.58
256.23	0.5823
256.588	0.5805
256.946	0.5793
257.304	0.5748
257.662	0.58
258.02	0.5804
258.377	0.5803
258.735	0.5715
259.093	0.5728
259.45	0.5763
259.807	0.5696
260.165	0.5695
260.522	0.567
260.879	0.5639
261.236	0.5655
261.593	0.5619
261.95	0.5608
262.306	0.5557
262.663	0.5543
263.02	0.5587
263.376	0.5554
263.733	0.5504
264.089	0.551
264.445	0.5471
264.802	0.546
265.158	0.5461
265.514	0.5396
265.87	0.533
266.226	0.5415
266.581	0.5315
266.937	0.5325
267.293	0.5283
267.648	0.5204
268.004	0.5219
268.359	0.5196
268.714	0.5142
269.07	0.513
269.425	0.5088
269.78	0.5053
270.135	0.5085
270.49	0.5043
270.844	0.5016
271.199	0.4955
271.554	0.4927
271.908	0.4889
272.263	0.4898
272.617	0.4874
272.972	0.4823
273.326	0.4797
273.68	0.4786
274.034	0.4742
274.388	0.4694
274.742	0.4642
275.096	0.4614
275.45	0.463
275.803	0.4586
276.157	0.4523
276.51	0.4488
276.864	0.4433
277.217	0.4401
277.571	0.4414
277.924	0.4369
278.277	0.4334
278.63	0.4269
278.983	0.4236
279.336	0.4193
279.688	0.4146
280.041	0.4099
280.394	0.4062
280.746	0.4038
281.099	0.3986
281.451	0.396
281.803	0.3924
282.156	0.3893
282.508	0.3836
282.86	0.3804
283.212	0.3719
283.564	0.3703
283.916	0.369
284.267	0.3629
284.619	0.3592
284.971	0.3573
285.322	0.3526
285.673	0.3465
286.025	0.3424
286.376	0.3401
286.727	0.3355
287.078	0.333
287.429	0.3274
287.78	0.323
288.131	0.3208
288.482	0.3165
288.833	0.3103
289.183	0.307
289.534	0.302
289.884	0.3004
290.235	0.2967
290.585	0.2931
290.935	0.2902
291.285	0.2845
291.635	0.2819
291.985	0.2773
292.335	0.2735
292.685	0.2728
293.035	0.2678
293.384	0.2634
293.734	0.2593
294.083	0.2556
294.433	0.2524
294.782	0.2468
295.131	0.2447
295.48	0.2389
295.829	0.2365
296.179	0.2332
296.527	0.2307
296.876	0.2279
297.225	0.2242
297.574	0.2192
297.922	0.2171
298.271	0.2141
298.619	0.2095
298.968	0.2073
299.316	0.2035
299.664	0.2013
300.012	0.199
300.36	0.1959
300.708	0.1924
301.056	0.1902
301.404	0.1879
301.752	0.1862
302.099	0.1823
302.447	0.18
302.794	0.1784
303.142	0.1758
303.489	0.1731
303.836	0.1721
304.183	0.169
304.531	0.1674
304.878	0.1662
305.224	0.1651
305.571	0.1618
305.918	0.1596
306.265	0.16
306.611	0.1579
306.958	0.1575
307.304	0.1546
307.651	0.1541
307.997	0.1526
308.343	0.1521
308.689	0.1512
309.035	0.1491
309.381	0.1492
309.727	0.1487
310.073	0.1485
310.419	0.1467
310.764	0.1457
311.11	0.1463
311.455	0.1457
311.801	0.1453
312.146	0.145
312.491	0.1446
312.837	0.1433
313.182	0.1445
313.527	0.1436
313.872	0.1437
314.216	0.144
314.561	0.1447
314.906	0.1447
315.251	0.145
315.595	0.146
315.94	0.1454
316.284	0.1459
316.628	0.1474
316.972	0.147
317.317	0.1484
317.661	0.1485
318.005	0.1495
318.348	0.15
318.692	0.1511
319.036	0.152
319.38	0.1519
319.723	0.1526
320.067	0.1539
320.41	0.1556
320.754	0.1564
321.097	0.1577
321.44	0.158
321.783	0.1595
322.126	0.1618
322.469	0.1618
322.812	0.1639
323.155	0.1652
323.498	0.1663
323.84	0.1681
324.183	0.17
324.525	0.171
324.868	0.1728
325.21	0.1737
325.552	0.1765
325.894	0.1774
326.236	0.1794
326.578	0.1805
326.92	0.1817
327.262	0.1834
327.604	0.1846
327.946	0.1861
328.287	0.1879
328.629	0.1905
328.97	0.1917
329.312	0.1928
329.653	0.1942
329.994	0.1964
330.335	0.1978
330.676	0.2004
331.017	0.2025
331.358	0.2034
331.699	0.2055
332.04	0.208
332.38	0.2088
332.721	0.2105
333.061	0.2133
333.402	0.2143
333.742	0.216
334.083	0.2174
334.423	0.2184
334.763	0.2206
335.103	0.2223
335.443	0.2238
335.783	0.2244
336.123	0.226
336.462	0.2276
336.802	0.2303
337.141	0.2308
337.481	0.2316
337.82	0.2337
338.16	0.2347
338.499	0.2361
338.838	0.2377
339.177	0.2397
339.516	0.2409
339.855	0.2424
340.194	0.2431
340.533	0.2442
340.872	0.245
341.21	0.2465
341.549	0.2479
341.887	0.2483
342.226	0.2493
342.564	0.2497
342.902	0.2511
343.24	0.2514
343.578	0.2525
343.916	0.253
344.254	0.2526
344.592	0.2534
344.93	0.254
345.268	0.2543
345.605	0.2545
345.943	0.2545
346.28	0.2552
346.618	0.2549
346.955	0.2559
347.292	0.2559
347.629	0.2568
347.966	0.2569
348.303	0.257
348.64	0.2579
348.977	0.2571
349.314	0.2578
349.65	0.2582
349.987	0.2579
350.324	0.2579
350.66	0.2573
350.996	0.256
351.333	0.2566
351.669	0.2571
352.005	0.2557
352.341	0.2545
352.677	0.2536
353.013	0.2527
353.349	0.2523
353.685	0.2508
354.02	0.2493
354.356	0.2483
354.691	0.2473
355.027	0.246
355.362	0.2461
355.697	0.2455
356.033	0.2445
356.368	0.2433
356.703	0.2419
357.038	0.2417
357.373	0.2398
357.707	0.2389
358.042	0.238
358.377	0.2381
358.711	0.2367
359.046	0.2353
359.38	0.234
359.715	0.2335
360.049	0.2323
360.383	0.2309
360.717	0.2296
361.051	0.2288
361.385	0.2272
361.719	0.2248
362.053	0.2231
362.387	0.2215
362.72	0.2192
363.054	0.218
363.387	0.2165
363.721	0.2144
364.054	0.2124
364.387	0.2099
364.721	0.21
365.054	0.2072
365.387	0.2052
365.72	0.2039
366.053	0.2026
366.385	0.2
366.718	0.1989
367.051	0.1974
367.383	0.1961
367.716	0.1945
368.048	0.1934
368.381	0.1909
368.713	0.1897
369.045	0.189
369.377	0.187
369.709	0.1859
370.041	0.1853
370.373	0.1831
370.705	0.1809
371.037	0.1799
371.368	0.1782
371.7	0.1766
372.031	0.1746
372.363	0.1731
372.694	0.1703
373.025	0.1673
373.356	0.1661
373.688	0.1648
374.019	0.1619
374.35	0.1601
374.68	0.1586
375.011	0.156
375.342	0.1536
375.673	0.1522
376.003	0.1503
376.334	0.1483
376.664	0.1459
376.995	0.1447
377.325	0.1424
377.655	0.1419
377.985	0.1397
378.315	0.1387
378.645	0.1365
378.975	0.136
379.305	0.1344
379.635	0.1338
379.964	0.1323
380.294	0.1297
380.623	0.1291
380.953	0.1275
381.282	0.1263
381.611	0.1245
381.941	0.1224
382.27	0.1222
382.599	0.1205
382.928	0.1182
383.257	0.1176
383.585	0.1154
383.914	0.1147
384.243	0.1128
384.571	0.1107
384.9	0.1085
385.228	0.1071
385.557	0.1052
385.885	0.1031
386.213	0.1023
386.541	0.1004
386.869	0.0986
387.197	0.097
387.525	0.0955
387.853	0.0934
388.181	0.0926
388.508	0.0905
388.836	0.0891
389.164	0.0871
389.491	0.0873
389.818	0.0853
390.146	0.084
390.473	0.0833
390.8	0.0815
391.127	0.0803
391.454	0.079
391.781	0.0784
392.108	0.0768
392.435	0.0758
392.761	0.0742
393.088	0.0743
393.415	0.0728
393.741	0.0729
394.067	0.0715
394.394	0.0707
394.72	0.0695
395.046	0.0691
395.372	0.0683
395.698	0.0671
396.024	0.0667
396.35	0.0654
396.676	0.0645
397.001	0.0633
397.327	0.0622
397.653	0.0612
397.978	0.0599
398.303	0.0595
398.629	0.0577
398.954	0.0569
399.279	0.0567
399.604	0.0559
399.929	0.0556
400.254	0.055
400.579	0.0548
400.904	0.0533
401.229	0.0525
401.553	0.0519
401.878	0.0514
402.202	0.05
402.527	0.0494
402.851	0.0498
403.175	0.0488
403.5	0.0491
403.824	0.0485
404.148	0.0477
404.472	0.0469
404.796	0.0466
405.119	0.0462
405.443	0.0459
405.767	0.0452
406.09	0.0453
406.414	0.0451
406.737	0.0449
407.061	0.0446
407.384	0.0444
407.707	0.0442
408.03	0.0437
408.353	0.0442
408.676	0.0435
408.999	0.0431
409.322	0.0426
409.645	0.043
409.968	0.0426
410.29	0.0422
410.613	0.043
410.935	0.0426
411.258	0.0422
411.58	0.0423
411.902	0.0422
412.224	0.042
412.546	0.0417
412.868	0.0419
413.19	0.0414
413.512	0.0415
413.834	0.0407
414.156	0.041
414.477	0.0416
414.799	0.0414
415.121	0.0413
415.442	0.0418
415.763	0.0408
416.085	0.041
416.406	0.0413
416.727	0.0417
417.048	0.0411
417.369	0.0409
417.69	0.0409
418.011	0.0401
418.331	0.0411
418.652	0.0406
418.973	0.0407
419.293	0.0412
419.614	0.041
419.934	0.0417
420.254	0.0412
420.574	0.0412
420.895	0.0414
421.215	0.0413
421.535	0.0407
421.855	0.041
422.174	0.0405
422.494	0.041
422.814	0.04
423.134	0.0409
423.453	0.0416
423.773	0.041
424.092	0.041
424.411	0.0406
424.731	0.0412
425.05	0.0403
425.369	0.0416
425.688	0.041
426.007	0.0407
426.326	0.041
426.644	0.0415
426.963	0.0412
427.282	0.0415
427.6	0.0409
427.919	0.0404
428.237	0.0412
428.556	0.041
428.874	0.0413
429.192	0.0422
429.51	0.0417
429.828	0.0413
430.146	0.0417
430.464	0.0409
430.782	0.0411
431.1	0.0419
431.418	0.0416
431.735	0.0412
432.053	0.0414
432.37	0.042
432.688	0.0421
433.005	0.0413
433.322	0.0424
433.639	0.0419
433.957	0.0423
434.274	0.0417
434.591	0.0418
434.907	0.0413
435.224	0.0416
435.541	0.0418
435.858	0.0421
436.174	0.0425
436.491	0.0411
436.807	0.0408
437.124	0.0413
437.44	0.0415
437.756	0.0418
438.072	0.0417
438.388	0.0414
438.704	0.0409
439.02	0.0412
439.336	0.0412
439.652	0.0408
439.968	0.041
440.283	0.0397
440.599	0.0408
440.914	0.041
441.23	0.0412
441.545	0.0407
441.86	0.0406
442.175	0.0406
442.491	0.041
442.806	0.0407
443.121	0.0405
443.435	0.0401
443.75	0.0394
444.065	0.0402
444.38	0.0405
444.694	0.0406
445.009	0.0401
445.323	0.0404
445.638	0.0389
445.952	0.0399
446.266	0.0397
446.58	0.0402
446.894	0.039
447.208	0.04
447.522	0.0398
447.836	0.0397
448.15	0.0386
448.464	0.0395
448.777	0.0396
449.091	0.038
449.404	0.0388
449.718	0.0381
450.031	0.0379
450.345	0.0387
450.658	0.0388
450.971	0.0387
451.284	0.0385
451.597	0.0381
451.91	0.0379
452.223	0.0375
452.535	0.0368
452.848	0.0385
453.161	0.0373
453.473	0.0383
453.786	0.0362
454.098	0.0367
454.411	0.0378
454.723	0.0365
455.035	0.0362
455.347	0.0356
455.659	0.0359
455.971	0.0365
456.283	0.0363
456.595	0.0359
456.907	0.0362
457.218	0.0355
457.53	0.0345
457.841	0.0352
458.153	0.0354
458.464	0.0345
458.776	0.0351
459.087	0.0348
459.398	0.0349
459.709	0.0344
460.02	0.0344
460.331	0.0335
460.642	0.0347
460.953	0.0334
461.263	0.0338
461.574	0.0329
461.885	0.0331
462.195	0.0327
462.506	0.0324
462.816	0.0326
463.126	0.0323
463.437	0.0324
463.747	0.0319
464.057	0.0315
464.367	0.0308
464.677	0.0312
464.987	0.0306
465.296	0.0317
465.606	0.0306
465.916	0.03
466.225	0.0306
466.535	0.0303
466.844	0.0303
467.154	0.0302
467.463	0.0292
467.772	0.0295
468.081	0.0293
468.39	0.0285
468.699	0.0287
469.008	0.0282
469.317	0.028
469.626	0.027
469.935	0.0268
470.243	0.0267
470.552	0.0273
470.86	0.0275
471.169	0.0271
471.477	0.0264
471.785	0.0271
472.093	0.0272
472.402	0.0265
472.71	0.0255
473.018	0.0261
473.326	0.0249
473.633	0.0259
473.941	0.025
474.249	0.0248
474.556	0.0256
474.864	0.0256
475.171	0.0244
475.479	0.024
475.786	0.0234
476.094	0.0232
476.401	0.0231
476.708	0.0236
477.015	0.0232
477.322	0.0231
477.629	0.0227
477.936	0.0228
478.242	0.0217
478.549	0.0223
478.856	0.0218
479.162	0.0214
479.469	0.0219
479.775	0.0223
480.081	0.021
480.388	0.0206
480.694	0.0211
481	0.0207
481.306	0.02
481.612	0.0203
481.918	0.0196
482.224	0.0193
482.53	0.0193
482.835	0.0193
483.141	0.0192
483.446	0.0185
483.752	0.0185
484.057	0.0182
484.363	0.0177
484.668	0.018
484.973	0.0168
485.278	0.0173
485.583	0.0167
485.888	0.0171
486.193	0.0157
486.498	0.0162
486.803	0.0166
487.107	0.0161
487.412	0.0157
487.717	0.016
488.021	0.0156
488.325	0.0163
488.63	0.0161
488.934	0.0165
489.238	0.0154
489.542	0.0143
489.846	0.0155
490.15	0.0144
490.454	0.0145
490.758	0.0131
491.062	0.0137
491.366	0.0131
491.669	0.0133
491.973	0.0138
492.276	0.013
492.58	0.0124
492.883	0.013
493.186	0.0126
493.489	0.0129
493.792	0.0115
494.096	0.0122
494.399	0.0115
494.701	0.0123
495.004	0.0115
495.307	0.0118
495.61	0.0106
495.912	0.012
496.215	0.0104
496.517	0.01
496.82	0.0101
497.122	0.01
497.424	0.0103
497.727	0.0094
498.029	0.0083
498.331	0.0098
498.633	0.0093
498.935	0.0093
499.237	0.0088
499.538	0.0087
499.84	0.0086
500.142	0.0082
500.443	0.0076
500.745	0.0073
501.046	0.0075
501.348	0.0078
501.649	0.0071
501.95	0.007
502.251	0.0073
502.552	0.0078
502.853	0.0064
503.154	0.0066
503.455	0.0074
503.756	0.007
504.057	0.008
504.357	0.0059
504.658	0.0069
504.958	0.0077
505.259	0.0061
505.559	0.0061
505.859	0.0058
506.16	0.0062
506.46	0.0061
506.76	0.0061
507.06	0.0058
507.36	0.0052
507.66	0.0046
507.96	0.0058
508.259	0.0046
508.559	0.0058
508.859	0.0052
509.158	0.0036
509.457	0.0045
509.757	0.005
510.056	0.0041
510.355	0.0049
510.655	0.0038
510.954	0.005
511.253	0.0047
511.552	0.0033
511.851	0.0043
512.149	0.0031
512.448	0.0029
512.747	0.0035
513.045	0.0027
513.344	0.0029
513.642	0.0027
513.941	0.0028
514.239	0.0032
514.537	0.002
514.836	0.0033
515.134	0.0008
515.432	0.0035
515.73	0.0023
516.028	0.003
516.326	0.0026
516.623	0.0027
516.921	0.0004
517.219	0.0016
517.516	0.0016
517.814	0.0015
518.111	0.0018
518.409	0.0002
518.706	0.0018
519.003	0.0021
519.3	0.0016
519.597	0.0013
519.894	0.001
520.191	0.0014
520.488	0.0019
520.785	0.0009
521.082	0.0016
521.378	0.0008
521.675	0.0012
521.971	0.0003
522.268	0.0014
522.564	0.0009
522.861	0.0019
523.157	0.001
523.453	0.0017
523.749	0.0004
524.045	0.0011
524.341	0.0011
524.637	0.0005
524.933	0.0007
525.229	0.0004
525.524	-0.0005
525.82	-0.0007
526.115	-0.0016
526.411	0.0003
526.706	0.0008
527.002	0.0008
527.297	-0.0006
527.592	0.0002
527.887	0.0016
528.182	0.0005
528.477	0.0012
528.772	0.001
529.067	0.0003
529.362	-0.0001
529.657	-0.0002
529.951	0.0014
530.246	0.0001
530.54	0.001
530.835	-0.0006
531.129	0.0004
531.423	0.0006
531.718	0.0001
532.012	-0.0007
532.306	0.0004
532.6	-0.0008
532.894	0.0001
533.188	0.0003
533.482	0.0009
533.775	-0.0001
534.069	-0.0002
534.363	-0.0007
534.656	-0.0016
534.95	0.0007
535.243	-0.0003
535.536	0.0011
535.83	-0.002
536.123	-0.0001
536.416	-0.0003
536.709	-0.0002
537.002	-0.0015
537.295	-0.0011
537.588	-0.0006
537.881	-0.0014
538.173	-0.0009
538.466	-0.0003
538.759	-0.0004
539.051	0.0002
539.344	0.0002
539.636	-0.0012
539.928	0.0004
540.22	-0.0001
540.513	-0.0003
540.805	-0.0001
541.097	-0.0015
541.389	-0.0013
541.681	0.0009
541.972	0.0001
542.264	0
542.556	0.0004
542.847	0.0009
543.139	0.0005
543.431	0.0002
543.722	0.0002
544.013	-0.0004
544.305	-0.0007
544.596	-0.0012
544.887	0.0012
545.178	-0.0001
545.469	-0.001
545.76	-0.0005
546.051	0.0016
546.342	-0
546.632	-0.0002
546.923	-0.0003
547.214	-0.0015
547.504	-0.0002
547.795	-0.0011
548.085	-0.0017
548.375	-0.0008
548.666	-0.0003
548.956	0
549.246	-0.0007
549.536	0.0007
549.826	-0.0012
550.116	-0.0006
550.406	-0.0016
550.695	-0.002
550.985	-0.0008
551.275	-0.0005
551.564	-0.0017
551.854	-0.0005
552.143	-0.0005
552.433	-0.0015
552.722	-0.002
553.011	-0.0001
553.3	-0.0012
553.589	-0.0003
553.879	-0.0002
554.167	0.0001
554.456	0.0007
554.745	0.0004
555.034	-0.0004
555.323	0.0008
555.611	-0.0005
555.9	-0.0002
556.188	-0.0011
556.477	-0.0005
556.765	-0.0019
557.053	-0.002
557.342	-0.0009
557.63	-0.0012
557.918	0.0001
558.206	0.0003
558.494	-0.0002
558.782	-0.0003
559.069	0.0011
559.357	0.0009
559.645	-0.0008
559.932	0.0003
560.22	0.0003
560.507	-0.0009
560.795	-0.0012
561.082	-0.002
561.37	0.0001
561.657	-0.0013
561.944	-0.0013
562.231	0.0004
562.518	-0.0001
562.805	-0
563.092	-0.0004
563.379	0.0002
563.665	0.0007
563.952	0.0002
564.239	0.0005
564.525	-0.0007
564.811	0.001
565.098	0.0008
565.384	-0.0004
565.67	0.0014
565.957	0.0014
566.243	0.0014
566.529	0.0007
566.815	0.0001
567.101	0.0016
567.387	0.0005
567.672	-0.0001
567.958	0.0016
568.244	0.0009
568.529	-0.0003
568.815	-0.0003
569.1	-0.0002
569.386	-0.001
569.671	-0.0001
569.956	-0.0002
570.242	0.0005
570.527	-0.0003
570.812	0
571.097	-0.0001
571.382	-0.0009
571.666	0.0007
571.951	-0.0007
572.236	-0.0005
572.521	0.0003
572.805	0.0005
573.09	-0.0001
573.374	-0.001
573.659	0.0002
573.943	-0.0003
574.227	-0.0003
574.511	-0.0006
574.795	0.0001
575.079	0.0003
575.363	-0.0008
575.647	-0.0002
575.931	0.0003
576.215	-0.0011
576.499	-0.0016
576.782	-0.0012
577.066	-0.0007
577.349	0.0003
577.633	-0.0001
577.916	-0.0011
578.2	-0.0005
578.483	0.0003
578.766	0.0005
579.049	0.0002
579.332	0.0015
579.615	0.0006
579.898	-0.0002
580.181	0.001
580.464	0.0014
580.746	0.0004
581.029	0.0006
581.312	-0.0003
581.594	-0.002
581.877	-0.0011
582.159	-0.0001
582.441	-0.0008
582.724	-0.0007
583.006	0.0012
583.288	0.001
583.57	0.0011
583.852	0.0012
584.134	0.001
584.416	0.0003
584.697	0
584.979	-0.001
585.261	-0.0018
585.542	-0.0007
585.824	-0.0001
586.105	-0.0011
586.387	-0.0005
586.668	-0.0001
586.949	0.0001
587.231	-0.0003
587.512	-0
587.793	0.0003
588.074	-0.0002
588.355	0.0011
588.636	-0.0003
588.916	-0.0005
589.197	0.0008
589.478	0.0007
589.758	0.0002
590.039	0.0001
590.319	0.0005
590.6	0.001
590.88	0.001
591.16	0.0012
591.441	0.0012
591.721	0.0003
592.001	-0.0004
592.281	-0.0004
592.561	0.0005
592.841	-0.0012
593.12	-0.002
593.4	-0.0013
593.68	-0.0019
593.959	-0.0009
594.239	-0.0005
