Data from 03 0.5 mM K2Cr2O7 0.3 mM BQDS 1 M H2SO4 5 min_Absorbance_0213.txt Node
Date: Tue Dec 14 11:24:45 EST 2021
User: kwabilab-user
Spectrometer: HDX00518
Trigger mode: 0
Integration Time (sec): 5.000000E-2
Scans to average: 50
Nonlinearity correction enabled: false
Boxcar width: 0
Storing dark spectrum: false
XAxis mode: Wavelengths
Number of Pixels in Spectrum: 2068
>>>>>Begin Spectral Data<<<<<
195.27	-0.071
195.642	0.0728
196.014	-0.0165
196.386	0.0107
196.758	-0.0124
197.129	-0.0086
197.501	-0.0229
197.872	0.0111
198.244	0.0158
198.615	0.0491
198.986	0.0259
199.357	0.0453
199.728	0.0259
200.099	0.0433
200.47	0.0123
200.841	0.0251
201.212	0.0277
201.582	0.0301
201.953	0.0549
202.323	0.0256
202.694	0.0233
203.064	0.0236
203.434	0.0343
203.804	0.0206
204.174	0.0342
204.544	0.04
204.914	0.03
205.284	0.0403
205.653	0.0248
206.023	0.0139
206.393	0.0168
206.762	0.0393
207.131	0.0414
207.501	0.0287
207.87	0.0631
208.239	0.0346
208.608	0.0313
208.977	0.0017
209.346	0.0166
209.715	0.0311
210.083	0.0289
210.452	0.0107
210.82	0.0276
211.189	0.0099
211.557	0.0583
211.925	-0.0011
212.294	0.0349
212.662	0.0366
213.03	0.0156
213.398	0.0405
213.766	0.0288
214.133	0.0269
214.501	0.0327
214.869	0.0467
215.236	0.0308
215.604	0.0344
215.971	0.0227
216.338	0.0453
216.705	0.0698
217.072	0.0816
217.439	0.0271
217.806	0.034
218.173	0.0417
218.54	0.0534
218.907	0.0661
219.273	0.083
219.64	0.0716
220.006	0.0774
220.373	0.0804
220.739	0.0981
221.105	0.1327
221.471	0.1364
221.837	0.143
222.203	0.1628
222.569	0.1712
222.935	0.1984
223.3	0.2115
223.666	0.239
224.031	0.268
224.397	0.2811
224.762	0.2861
225.127	0.338
225.493	0.3594
225.858	0.3635
226.223	0.4072
226.588	0.4239
226.952	0.4292
227.317	0.4515
227.682	0.4691
228.046	0.4707
228.411	0.5161
228.775	0.5204
229.14	0.5321
229.504	0.5443
229.868	0.5645
230.232	0.5585
230.596	0.5742
230.96	0.5977
231.324	0.5876
231.688	0.6175
232.052	0.6289
232.415	0.6262
232.779	0.6276
233.142	0.6386
233.505	0.6359
233.869	0.641
234.232	0.6398
234.595	0.6445
234.958	0.6568
235.321	0.6389
235.684	0.6577
236.047	0.6414
236.409	0.631
236.772	0.6474
237.134	0.6482
237.497	0.6503
237.859	0.6542
238.222	0.6476
238.584	0.6394
238.946	0.6387
239.308	0.64
239.67	0.6275
240.032	0.628
240.393	0.6354
240.755	0.6235
241.117	0.6255
241.478	0.6206
241.84	0.6265
242.201	0.616
242.562	0.609
242.924	0.6037
243.285	0.6018
243.646	0.6074
244.007	0.6035
244.368	0.6087
244.728	0.6017
245.089	0.6022
245.45	0.5993
245.81	0.598
246.171	0.5978
246.531	0.5917
246.891	0.5892
247.252	0.5888
247.612	0.5847
247.972	0.5841
248.332	0.5848
248.692	0.5836
249.051	0.5884
249.411	0.584
249.771	0.5788
250.13	0.5791
250.49	0.5744
250.849	0.5761
251.208	0.5697
251.568	0.5776
251.927	0.573
252.286	0.5764
252.645	0.5725
253.004	0.5707
253.363	0.5723
253.721	0.5677
254.08	0.5708
254.439	0.5642
254.797	0.5603
255.155	0.5546
255.514	0.5595
255.872	0.5676
256.23	0.5628
256.588	0.5663
256.946	0.556
257.304	0.5587
257.662	0.5588
258.02	0.5571
258.377	0.5501
258.735	0.5465
259.093	0.546
259.45	0.544
259.807	0.5419
260.165	0.547
260.522	0.5483
260.879	0.5425
261.236	0.5408
261.593	0.5422
261.95	0.5353
262.306	0.5325
262.663	0.5284
263.02	0.5244
263.376	0.5244
263.733	0.5221
264.089	0.5248
264.445	0.5196
264.802	0.5189
265.158	0.5201
265.514	0.5137
265.87	0.5082
266.226	0.5048
266.581	0.5057
266.937	0.5032
267.293	0.5046
267.648	0.4929
268.004	0.4973
268.359	0.4929
268.714	0.4891
269.07	0.4851
269.425	0.4853
269.78	0.4783
270.135	0.4811
270.49	0.4786
270.844	0.4761
271.199	0.4701
271.554	0.4698
271.908	0.4643
272.263	0.4644
272.617	0.4549
272.972	0.4566
273.326	0.4501
273.68	0.4481
274.034	0.4466
274.388	0.442
274.742	0.4388
275.096	0.4372
275.45	0.4342
275.803	0.4303
276.157	0.43
276.51	0.4249
276.864	0.4184
277.217	0.4169
277.571	0.4144
277.924	0.4071
278.277	0.4072
278.63	0.4018
278.983	0.3991
279.336	0.3945
279.688	0.3906
280.041	0.386
280.394	0.384
280.746	0.3791
281.099	0.3739
281.451	0.3724
281.803	0.3679
282.156	0.3619
282.508	0.3602
282.86	0.3576
283.212	0.3503
283.564	0.3479
283.916	0.3456
284.267	0.3408
284.619	0.3364
284.971	0.3349
285.322	0.3313
285.673	0.3264
286.025	0.3207
286.376	0.3193
286.727	0.3157
287.078	0.3124
287.429	0.306
287.78	0.3033
288.131	0.3002
288.482	0.2969
288.833	0.2906
289.183	0.2873
289.534	0.2848
289.884	0.2812
290.235	0.2756
290.585	0.2746
290.935	0.2677
291.285	0.2628
291.635	0.2614
291.985	0.2575
292.335	0.2538
292.685	0.2522
293.035	0.2467
293.384	0.2439
293.734	0.2414
294.083	0.2369
294.433	0.2328
294.782	0.2293
295.131	0.2253
295.48	0.2213
295.829	0.2198
296.179	0.2167
296.527	0.2138
296.876	0.2094
297.225	0.2063
297.574	0.2022
297.922	0.2
298.271	0.1971
298.619	0.1942
298.968	0.1924
299.316	0.1881
299.664	0.1861
300.012	0.1832
300.36	0.1803
300.708	0.1775
301.056	0.1751
301.404	0.1731
301.752	0.1711
302.099	0.167
302.447	0.1666
302.794	0.1645
303.142	0.162
303.489	0.1589
303.836	0.1578
304.183	0.1554
304.531	0.1543
304.878	0.1525
305.224	0.152
305.571	0.1495
305.918	0.1472
306.265	0.1464
306.611	0.1451
306.958	0.1446
307.304	0.1421
307.651	0.141
307.997	0.1408
308.343	0.14
308.689	0.1388
309.035	0.1375
309.381	0.1375
309.727	0.1364
310.073	0.1361
310.419	0.1351
310.764	0.1345
311.11	0.1337
311.455	0.1341
311.801	0.1335
312.146	0.133
312.491	0.1332
312.837	0.133
313.182	0.1325
313.527	0.133
313.872	0.1328
314.216	0.1326
314.561	0.1327
314.906	0.1326
315.251	0.1332
315.595	0.134
315.94	0.1338
316.284	0.1347
316.628	0.1357
316.972	0.1359
317.317	0.1366
317.661	0.1368
318.005	0.1378
318.348	0.1383
318.692	0.1399
319.036	0.1391
319.38	0.1406
319.723	0.1409
320.067	0.1421
320.41	0.1438
320.754	0.145
321.097	0.1462
321.44	0.1468
321.783	0.1477
322.126	0.1501
322.469	0.1499
322.812	0.1518
323.155	0.1529
323.498	0.1543
323.84	0.1557
324.183	0.1574
324.525	0.1588
324.868	0.1607
325.21	0.1604
325.552	0.1634
325.894	0.1645
326.236	0.1662
326.578	0.1664
326.92	0.1692
327.262	0.1704
327.604	0.1722
327.946	0.1734
328.287	0.175
328.629	0.1768
328.97	0.1783
329.312	0.1795
329.653	0.181
329.994	0.183
330.335	0.1849
330.676	0.1863
331.017	0.1883
331.358	0.1905
331.699	0.1918
332.04	0.1937
332.38	0.1944
332.721	0.1964
333.061	0.1991
333.402	0.2005
333.742	0.2017
334.083	0.2038
334.423	0.2045
334.763	0.2066
335.103	0.2076
335.443	0.2088
335.783	0.2108
336.123	0.212
336.462	0.2128
336.802	0.2148
337.141	0.2157
337.481	0.2175
337.82	0.219
338.16	0.2195
338.499	0.2216
338.838	0.2223
339.177	0.2245
339.516	0.2258
339.855	0.2267
340.194	0.2277
340.533	0.229
340.872	0.2301
341.21	0.2315
341.549	0.232
341.887	0.2332
342.226	0.2341
342.564	0.2344
342.902	0.2353
343.24	0.2362
343.578	0.2361
343.916	0.2376
344.254	0.2375
344.592	0.2382
344.93	0.2387
345.268	0.2395
345.605	0.2388
345.943	0.2392
346.28	0.2402
346.618	0.2397
346.955	0.2405
347.292	0.2407
347.629	0.2412
347.966	0.2417
348.303	0.2415
348.64	0.2424
348.977	0.2417
349.314	0.2418
349.65	0.2416
349.987	0.2421
350.324	0.2428
350.66	0.2418
350.996	0.241
351.333	0.2412
351.669	0.2408
352.005	0.2406
352.341	0.239
352.677	0.2388
353.013	0.2383
353.349	0.2371
353.685	0.236
354.02	0.2348
354.356	0.2329
354.691	0.2329
355.027	0.2315
355.362	0.2326
355.697	0.2306
356.033	0.2295
356.368	0.2289
356.703	0.2282
357.038	0.2278
357.373	0.2252
357.707	0.2252
358.042	0.2245
358.377	0.2237
358.711	0.2228
359.046	0.2212
359.38	0.2206
359.715	0.2197
360.049	0.2183
360.383	0.2176
360.717	0.2162
361.051	0.2148
361.385	0.2132
361.719	0.2113
362.053	0.2107
362.387	0.2081
362.72	0.2066
363.054	0.2052
363.387	0.2033
363.721	0.2015
364.054	0.1995
364.387	0.1981
364.721	0.1962
365.054	0.1949
365.387	0.1927
365.72	0.1907
366.053	0.1897
366.385	0.1882
366.718	0.1866
367.051	0.1855
367.383	0.1836
367.716	0.182
368.048	0.1816
368.381	0.1788
368.713	0.1793
369.045	0.1778
369.377	0.176
369.709	0.1754
370.041	0.1742
370.373	0.1719
370.705	0.17
371.037	0.1685
371.368	0.1667
371.7	0.1662
372.031	0.1633
372.363	0.1623
372.694	0.1596
373.025	0.1574
373.356	0.1551
373.688	0.1544
374.019	0.1519
374.35	0.1495
374.68	0.148
375.011	0.1462
375.342	0.1433
375.673	0.1426
376.003	0.1401
376.334	0.1385
376.664	0.1363
376.995	0.1358
377.325	0.1326
377.655	0.1329
377.985	0.1311
378.315	0.1295
378.645	0.1282
378.975	0.1271
379.305	0.1253
379.635	0.1242
379.964	0.1241
380.294	0.121
380.623	0.1207
380.953	0.1194
381.282	0.1178
381.611	0.1159
381.941	0.1143
382.27	0.114
382.599	0.1117
382.928	0.1096
383.257	0.1094
383.585	0.1071
383.914	0.107
384.243	0.1045
384.571	0.1032
384.9	0.1008
385.228	0.0995
385.557	0.0975
385.885	0.0962
386.213	0.0945
386.541	0.0935
386.869	0.0921
387.197	0.0888
387.525	0.0882
387.853	0.0866
388.181	0.0852
388.508	0.0838
388.836	0.0822
389.164	0.0807
389.491	0.0806
389.818	0.0788
390.146	0.078
390.473	0.0765
390.8	0.0755
391.127	0.0742
391.454	0.073
391.781	0.0717
392.108	0.071
392.435	0.0698
392.761	0.0684
393.088	0.068
393.415	0.0675
393.741	0.0669
394.067	0.066
394.394	0.0655
394.72	0.0637
395.046	0.0629
395.372	0.0628
395.698	0.0622
396.024	0.0607
396.35	0.0596
396.676	0.0585
397.001	0.0579
397.327	0.0565
397.653	0.0561
397.978	0.055
398.303	0.0538
398.629	0.0525
398.954	0.0521
399.279	0.0513
399.604	0.0511
399.929	0.0502
400.254	0.0496
400.579	0.0498
400.904	0.0484
401.229	0.0478
401.553	0.0472
401.878	0.047
402.202	0.0456
402.527	0.0458
402.851	0.0449
403.175	0.0444
403.5	0.0443
403.824	0.0443
404.148	0.0438
404.472	0.0428
404.796	0.0425
405.119	0.042
405.443	0.0418
405.767	0.0407
406.09	0.041
406.414	0.0413
406.737	0.0412
407.061	0.041
407.384	0.0406
407.707	0.0405
408.03	0.0401
408.353	0.0398
408.676	0.0398
408.999	0.039
409.322	0.0392
409.645	0.0392
409.968	0.0393
410.29	0.0391
410.613	0.0387
410.935	0.0394
411.258	0.0384
411.58	0.0387
411.902	0.0382
412.224	0.0378
412.546	0.0382
412.868	0.0378
413.19	0.0383
413.512	0.038
413.834	0.0368
414.156	0.0376
414.477	0.0379
414.799	0.0376
415.121	0.0383
415.442	0.0381
415.763	0.0376
416.085	0.0377
416.406	0.038
416.727	0.0378
417.048	0.037
417.369	0.0375
417.69	0.0367
418.011	0.0371
418.331	0.0377
418.652	0.0374
418.973	0.038
419.293	0.0379
419.614	0.0379
419.934	0.0385
420.254	0.0384
420.574	0.0377
420.895	0.0378
421.215	0.0373
421.535	0.0369
421.855	0.0371
422.174	0.037
422.494	0.0371
422.814	0.0373
423.134	0.0378
423.453	0.0374
423.773	0.0377
424.092	0.0378
424.411	0.0372
424.731	0.0379
425.05	0.0373
425.369	0.037
425.688	0.038
426.007	0.0375
426.326	0.0375
426.644	0.0381
426.963	0.0386
427.282	0.0381
427.6	0.0377
427.919	0.0377
428.237	0.0384
428.556	0.0381
428.874	0.0381
429.192	0.0384
429.51	0.0383
429.828	0.0381
430.146	0.0381
430.464	0.0376
430.782	0.0386
431.1	0.0386
431.418	0.0375
431.735	0.0381
432.053	0.0388
432.37	0.0386
432.688	0.0383
433.005	0.038
433.322	0.0386
433.639	0.0386
433.957	0.0382
434.274	0.0388
434.591	0.0385
434.907	0.0381
435.224	0.0386
435.541	0.0381
435.858	0.039
436.174	0.039
436.491	0.0384
436.807	0.037
437.124	0.0378
437.44	0.0383
437.756	0.0382
438.072	0.0385
438.388	0.0382
438.704	0.0385
439.02	0.0381
439.336	0.0375
439.652	0.0373
439.968	0.0371
440.283	0.0371
440.599	0.0369
440.914	0.0384
441.23	0.0372
441.545	0.0373
441.86	0.0371
442.175	0.0373
442.491	0.0378
442.806	0.0369
443.121	0.0368
443.435	0.0367
443.75	0.0369
444.065	0.0371
444.38	0.0366
444.694	0.0363
445.009	0.037
445.323	0.037
445.638	0.0361
445.952	0.0366
446.266	0.0368
446.58	0.036
446.894	0.0364
447.208	0.0367
447.522	0.0365
447.836	0.0361
448.15	0.0354
448.464	0.0363
448.777	0.0366
449.091	0.0352
449.404	0.0356
449.718	0.0351
450.031	0.0347
450.345	0.0352
450.658	0.0349
450.971	0.0353
451.284	0.0349
451.597	0.0348
451.91	0.0346
452.223	0.0348
452.535	0.0343
452.848	0.0351
453.161	0.0339
453.473	0.0343
453.786	0.0342
454.098	0.0337
454.411	0.0339
454.723	0.033
455.035	0.0331
455.347	0.0327
455.659	0.0335
455.971	0.0335
456.283	0.0325
456.595	0.0325
456.907	0.0331
457.218	0.0326
457.53	0.0314
457.841	0.0324
458.153	0.032
458.464	0.0325
458.776	0.0314
459.087	0.0311
459.398	0.0317
459.709	0.0317
460.02	0.0308
460.331	0.0304
460.642	0.0308
460.953	0.0304
461.263	0.0303
461.574	0.0302
461.885	0.0298
462.195	0.0296
462.506	0.03
462.816	0.0299
463.126	0.0295
463.437	0.0287
463.747	0.0286
464.057	0.0282
464.367	0.0292
464.677	0.0286
464.987	0.0278
465.296	0.0283
465.606	0.0269
465.916	0.027
466.225	0.0276
466.535	0.0278
466.844	0.0273
467.154	0.0275
467.463	0.0264
467.772	0.0272
468.081	0.0263
468.39	0.0257
468.699	0.0258
469.008	0.0253
469.317	0.026
469.626	0.0247
469.935	0.0241
470.243	0.0244
470.552	0.0246
470.86	0.0243
471.169	0.0241
471.477	0.0245
471.785	0.0242
472.093	0.0238
472.402	0.0233
472.71	0.0238
473.018	0.0224
473.326	0.0224
473.633	0.0234
473.941	0.0227
474.249	0.0228
474.556	0.0233
474.864	0.0221
475.171	0.0217
475.479	0.0214
475.786	0.0213
476.094	0.0217
476.401	0.0208
476.708	0.0208
477.015	0.021
477.322	0.0207
477.629	0.0205
477.936	0.0203
478.242	0.0197
478.549	0.0196
478.856	0.0204
479.162	0.0193
479.469	0.019
479.775	0.02
480.081	0.0191
480.388	0.0182
480.694	0.0178
481	0.0186
481.306	0.0174
481.612	0.0173
481.918	0.0177
482.224	0.0171
482.53	0.0169
482.835	0.017
483.141	0.0175
483.446	0.0171
483.752	0.0162
484.057	0.0164
484.363	0.016
484.668	0.0156
484.973	0.0146
485.278	0.0149
485.583	0.0152
485.888	0.014
486.193	0.0136
486.498	0.0139
486.803	0.0146
487.107	0.014
487.412	0.013
487.717	0.0138
488.021	0.0139
488.325	0.0142
488.63	0.0136
488.934	0.0138
489.238	0.0138
489.542	0.0122
489.846	0.0134
490.15	0.0127
490.454	0.0123
490.758	0.0125
491.062	0.0116
491.366	0.0115
491.669	0.0117
491.973	0.013
492.276	0.0117
492.58	0.0112
492.883	0.0113
493.186	0.0108
493.489	0.0113
493.792	0.0099
494.096	0.0095
494.399	0.0102
494.701	0.0104
495.004	0.0084
495.307	0.0106
495.61	0.0092
495.912	0.0096
496.215	0.0087
496.517	0.0081
496.82	0.0088
497.122	0.0082
497.424	0.0089
497.727	0.0085
498.029	0.0076
498.331	0.008
498.633	0.0083
498.935	0.0077
499.237	0.0074
499.538	0.0074
499.84	0.0071
500.142	0.0073
500.443	0.0062
500.745	0.007
501.046	0.0062
501.348	0.0065
501.649	0.0057
501.95	0.005
502.251	0.0055
502.552	0.0057
502.853	0.0054
503.154	0.005
503.455	0.0049
503.756	0.005
504.057	0.0061
504.357	0.0049
504.658	0.0052
504.958	0.0061
505.259	0.0056
505.559	0.0043
505.859	0.0048
506.16	0.0038
506.46	0.0047
506.76	0.005
507.06	0.0047
507.36	0.005
507.66	0.0038
507.96	0.005
508.259	0.0049
508.559	0.0046
508.859	0.004
509.158	0.004
509.457	0.0034
509.757	0.0044
510.056	0.0044
510.355	0.0036
510.655	0.0025
510.954	0.0029
511.253	0.0021
511.552	0.0034
511.851	0.003
512.149	0.0027
512.448	0.0028
512.747	0.002
513.045	0.0015
513.344	0.0009
513.642	0.0013
513.941	0.0026
514.239	0.0021
514.537	0.0022
514.836	0.0021
515.134	0.0009
515.432	0.0023
515.73	0.002
516.028	0.0012
516.326	0.0028
516.623	0.0014
516.921	0.0007
517.219	0.0012
517.516	0.0018
517.814	0.0013
518.111	0.002
518.409	0.0001
518.706	0.0004
519.003	0.0017
519.3	0.0009
519.597	0.0008
519.894	0.0014
520.191	0.0006
520.488	0.0006
520.785	0.0001
521.082	0.0004
521.378	0.0001
521.675	0.0003
521.971	-0.0003
522.268	0.0007
522.564	0.0005
522.861	0.0021
523.157	0.0012
523.453	0.0012
523.749	0.0002
524.045	0.0006
524.341	0.0006
524.637	-0.0003
524.933	0.0003
525.229	0.0007
525.524	-0
525.82	-0.0004
526.115	-0.0015
526.411	-0.0001
526.706	0.0005
527.002	0.0013
527.297	-0.0005
527.592	0.0008
527.887	0.0009
528.182	0.0008
528.477	0.0017
528.772	-0
529.067	0.0001
529.362	-0.0002
529.657	0.0006
529.951	-0.0003
530.246	-0.0006
530.54	0.0013
530.835	-0
531.129	0.0001
531.423	-0.0002
531.718	-0.0007
532.012	-0.0002
532.306	0.0002
532.6	-0.0015
532.894	-0.0002
533.188	0
533.482	-0.0008
533.775	0.0001
534.069	0.0003
534.363	-0.0019
534.656	-0.0016
534.95	-0.0008
535.243	-0.0009
535.536	-0.0004
535.83	-0.0005
536.123	0.0002
536.416	-0.0001
536.709	0.0004
537.002	-0.0009
537.295	-0.0008
537.588	-0.0018
537.881	-0.0014
538.173	-0.0016
538.466	-0.0023
538.759	-0.0004
539.051	-0.0005
539.344	-0.0003
539.636	-0.0012
539.928	-0
540.22	-0.0004
540.513	-0.0007
540.805	0.0006
541.097	-0.0011
541.389	-0.0003
541.681	0
541.972	0.0005
542.264	0.0012
542.556	0.0007
542.847	0.0015
543.139	0.0006
543.431	-0.0006
543.722	-0.0005
544.013	0.0003
544.305	-0.0005
544.596	-0.0009
544.887	0
545.178	0.0001
545.469	-0.001
545.76	0.0003
546.051	0.0003
546.342	0.0003
546.632	-0.0016
546.923	0.0007
547.214	-0.0007
547.504	-0.0016
547.795	-0.0011
548.085	-0.002
548.375	-0.001
548.666	-0.0008
548.956	-0.0013
549.246	-0.0001
549.536	0.0002
549.826	-0.0002
550.116	-0.0009
550.406	-0.0005
550.695	-0.0017
550.985	-0.0007
551.275	-0.0009
551.564	-0.0006
551.854	0.0002
552.143	-0.0007
552.433	-0.0013
552.722	-0.0017
553.011	0.0009
553.3	-0.0001
553.589	-0.0004
553.879	0.0002
554.167	-0.0004
554.456	0.0004
554.745	0.0005
555.034	0.0001
555.323	0.0004
555.611	-0.0002
555.9	0.0007
556.188	-0.001
556.477	0.0003
556.765	-0.0019
557.053	-0.0002
557.342	-0.0005
557.63	0.0001
557.918	-0.0001
558.206	0.0008
558.494	-0.0002
558.782	0.0005
559.069	0.0015
559.357	0.0022
559.645	0.0001
559.932	0.0005
560.22	-0.0007
560.507	-0.0009
560.795	-0.0006
561.082	-0.0016
561.37	-0.0004
561.657	-0.0001
561.944	-0.0009
562.231	-0.0002
562.518	-0.0007
562.805	0.0003
563.092	-0.0001
563.379	0.0008
563.665	0.0008
563.952	-0
564.239	0.0006
564.525	0.0004
564.811	0.0022
565.098	0.0007
565.384	0.0006
565.67	0.0008
565.957	0.0018
566.243	0.0022
566.529	0.0009
566.815	0.0011
567.101	0.0012
567.387	-0.0002
567.672	0.0004
567.958	0.0007
568.244	0.0002
568.529	0.0012
568.815	-0.0003
569.1	-0.0003
569.386	-0.0006
569.671	0.0003
569.956	-0.0004
570.242	-0.0007
570.527	-0.0007
570.812	0.0007
571.097	-0
571.382	-0.0012
571.666	0
571.951	-0.0011
572.236	-0.0004
572.521	0.0005
572.805	0
573.09	-0.0006
573.374	-0.0013
573.659	-0.001
573.943	-0.001
574.227	-0.0008
574.511	-0.0011
574.795	-0.0005
575.079	-0
575.363	-0.0014
575.647	-0.0003
575.931	0.0003
576.215	-0.0011
576.499	-0.0014
576.782	-0.0012
577.066	-0.0007
577.349	0.0005
577.633	-0.0013
577.916	-0.0016
578.2	-0.0004
578.483	-0.0007
578.766	0.0002
579.049	-0.0001
579.332	0.0009
579.615	-0.0001
579.898	-0.0007
580.181	0.0005
580.464	0.0006
580.746	0.0003
581.029	-0.0008
581.312	-0.0005
581.594	-0.0024
581.877	-0.0019
582.159	-0.0003
582.441	-0.001
582.724	-0.0003
583.006	0.0014
583.288	0.0001
583.57	0.0017
583.852	0.0009
584.134	0.0005
584.416	-0
584.697	-0.0001
584.979	-0.0007
585.261	-0.0022
585.542	-0.0017
585.824	-0.001
586.105	-0.0013
586.387	-0.0007
586.668	-0.0005
586.949	0
587.231	-0
587.512	0
587.793	0
588.074	-0.0008
588.355	-0.0001
588.636	-0.0008
588.916	-0.0009
589.197	0.0006
589.478	0.0001
589.758	0.0004
590.039	0.0004
590.319	0.0007
590.6	0.0011
590.88	0.0018
591.16	0.0013
591.441	0.0014
591.721	0.0005
592.001	-0.0001
592.281	-0.0001
592.561	0.0008
592.841	-0.0015
593.12	-0.0026
593.4	-0.0013
593.68	-0.002
593.959	-0.0012
594.239	-0.0006
594.518	0.0006
594.798	0.0006
595.077	-0.0009
595.356	-0.001
