Data from 03 0.5 mM K2Cr2O7 0.3 mM BQDS 1 M H2SO4 5 min_Absorbance_0152.txt Node
Date: Tue Dec 14 06:19:46 EST 2021
User: kwabilab-user
Spectrometer: HDX00518
Trigger mode: 0
Integration Time (sec): 5.000000E-2
Scans to average: 50
Nonlinearity correction enabled: false
Boxcar width: 0
Storing dark spectrum: false
XAxis mode: Wavelengths
Number of Pixels in Spectrum: 2068
>>>>>Begin Spectral Data<<<<<
195.27	-0.0463
195.642	0.0229
196.014	-0.0801
196.386	0.217
196.758	-0.0372
197.129	-0.0095
197.501	-0.0072
197.872	0.0065
198.244	0.0249
198.615	0.033
198.986	0.0139
199.357	0.0333
199.728	0.0184
200.099	0.044
200.47	0.0185
200.841	0.0205
201.212	0.0285
201.582	0.0361
201.953	0.0332
202.323	0.0415
202.694	0.0158
203.064	0.016
203.434	0.0375
203.804	0.0142
204.174	0.0421
204.544	0.0211
204.914	0.0261
205.284	0.0214
205.653	0.0183
206.023	0.0328
206.393	0.0106
206.762	0.036
207.131	0.028
207.501	0.0309
207.87	0.0462
208.239	0.0383
208.608	0.0321
208.977	0.0037
209.346	0.0166
209.715	0.0237
210.083	-0.0073
210.452	0.0166
210.82	0.0086
211.189	0.0044
211.557	0.0363
211.925	-0.0063
212.294	0.017
212.662	0.0393
213.03	0.0232
213.398	0.0426
213.766	0.0354
214.133	0.0179
214.501	0.0429
214.869	0.0118
215.236	0.0453
215.604	0.0297
215.971	0.0475
216.338	0.065
216.705	0.0632
217.072	0.0503
217.439	0.0294
217.806	0.0542
218.173	0.0562
218.54	0.0676
218.907	0.0595
219.273	0.0775
219.64	0.0816
220.006	0.0884
220.373	0.0893
220.739	0.0903
221.105	0.1174
221.471	0.1507
221.837	0.1645
222.203	0.1737
222.569	0.1844
222.935	0.1981
223.3	0.2134
223.666	0.2428
224.031	0.2627
224.397	0.2745
224.762	0.2786
225.127	0.3135
225.493	0.3363
225.858	0.3768
226.223	0.3951
226.588	0.4133
226.952	0.4569
227.317	0.4587
227.682	0.4686
228.046	0.4817
228.411	0.5195
228.775	0.5294
229.14	0.5288
229.504	0.5475
229.868	0.5533
230.232	0.5506
230.596	0.5666
230.96	0.5973
231.324	0.6097
231.688	0.6063
232.052	0.6187
232.415	0.633
232.779	0.6156
233.142	0.6452
233.505	0.6365
233.869	0.6414
234.232	0.6521
234.595	0.6455
234.958	0.6632
235.321	0.6626
235.684	0.6497
236.047	0.6506
236.409	0.6357
236.772	0.6572
237.134	0.6579
237.497	0.6581
237.859	0.6597
238.222	0.6594
238.584	0.6489
238.946	0.6422
239.308	0.6424
239.67	0.6359
240.032	0.6571
240.393	0.6507
240.755	0.6413
241.117	0.6362
241.478	0.6412
241.84	0.6294
242.201	0.6253
242.562	0.6247
242.924	0.6189
243.285	0.6222
243.646	0.6225
244.007	0.6209
244.368	0.618
244.728	0.6164
245.089	0.6233
245.45	0.612
245.81	0.6168
246.171	0.6091
246.531	0.6069
246.891	0.6077
247.252	0.603
247.612	0.604
247.972	0.5998
248.332	0.6054
248.692	0.6024
249.051	0.5959
249.411	0.6037
249.771	0.6002
250.13	0.59
250.49	0.5993
250.849	0.5952
251.208	0.5983
251.568	0.5909
251.927	0.5921
252.286	0.5938
252.645	0.5976
253.004	0.5961
253.363	0.5927
253.721	0.5922
254.08	0.5908
254.439	0.5905
254.797	0.5861
255.155	0.5788
255.514	0.5881
255.872	0.5836
256.23	0.585
256.588	0.5899
256.946	0.5814
257.304	0.5835
257.662	0.5829
258.02	0.5872
258.377	0.5809
258.735	0.5778
259.093	0.5712
259.45	0.5789
259.807	0.5714
260.165	0.5764
260.522	0.5694
260.879	0.5663
261.236	0.5649
261.593	0.5634
261.95	0.5612
262.306	0.5603
262.663	0.5569
263.02	0.5589
263.376	0.5528
263.733	0.5558
264.089	0.5554
264.445	0.5503
264.802	0.5482
265.158	0.5466
265.514	0.5455
265.87	0.5324
266.226	0.5412
266.581	0.5365
266.937	0.5346
267.293	0.5283
267.648	0.5254
268.004	0.5247
268.359	0.5228
268.714	0.5166
269.07	0.5149
269.425	0.5087
269.78	0.5071
270.135	0.5076
270.49	0.5048
270.844	0.5041
271.199	0.4992
271.554	0.4953
271.908	0.4924
272.263	0.4915
272.617	0.4829
272.972	0.4829
273.326	0.4781
273.68	0.473
274.034	0.4699
274.388	0.4675
274.742	0.4673
275.096	0.4663
275.45	0.4581
275.803	0.4555
276.157	0.4553
276.51	0.4461
276.864	0.446
277.217	0.4428
277.571	0.4417
277.924	0.4371
278.277	0.4316
278.63	0.4232
278.983	0.4197
279.336	0.4172
279.688	0.4167
280.041	0.4109
280.394	0.4099
280.746	0.4052
281.099	0.3984
281.451	0.3937
281.803	0.3892
282.156	0.3851
282.508	0.3829
282.86	0.3801
283.212	0.3726
283.564	0.3679
283.916	0.3677
284.267	0.3609
284.619	0.3584
284.971	0.3532
285.322	0.3499
285.673	0.3442
286.025	0.3411
286.376	0.3378
286.727	0.334
287.078	0.3313
287.429	0.3265
287.78	0.3232
288.131	0.3174
288.482	0.3145
288.833	0.3093
289.183	0.3038
289.534	0.302
289.884	0.2988
290.235	0.2942
290.585	0.2901
290.935	0.2876
291.285	0.2804
291.635	0.2768
291.985	0.2732
292.335	0.2708
292.685	0.2685
293.035	0.2649
293.384	0.26
293.734	0.2559
294.083	0.253
294.433	0.2473
294.782	0.245
295.131	0.2402
295.48	0.2363
295.829	0.2329
296.179	0.2301
296.527	0.2281
296.876	0.2244
297.225	0.2199
297.574	0.2181
297.922	0.2132
298.271	0.2111
298.619	0.2066
298.968	0.2046
299.316	0.2015
299.664	0.1981
300.012	0.1956
300.36	0.1927
300.708	0.1897
301.056	0.187
301.404	0.1837
301.752	0.1825
302.099	0.1792
302.447	0.1769
302.794	0.1747
303.142	0.1729
303.489	0.1705
303.836	0.1686
304.183	0.1668
304.531	0.1653
304.878	0.163
305.224	0.1628
305.571	0.1594
305.918	0.158
306.265	0.1569
306.611	0.1551
306.958	0.1539
307.304	0.1519
307.651	0.152
307.997	0.1503
308.343	0.1495
308.689	0.1482
309.035	0.1467
309.381	0.1467
309.727	0.1457
310.073	0.1451
310.419	0.1448
310.764	0.1433
311.11	0.1436
311.455	0.1428
311.801	0.1428
312.146	0.142
312.491	0.1426
312.837	0.1414
313.182	0.1416
313.527	0.1416
313.872	0.1417
314.216	0.1412
314.561	0.1415
314.906	0.1418
315.251	0.1421
315.595	0.143
315.94	0.1429
316.284	0.1443
316.628	0.1441
316.972	0.1453
317.317	0.145
317.661	0.1455
318.005	0.1457
318.348	0.1482
318.692	0.1488
319.036	0.149
319.38	0.1486
319.723	0.1508
320.067	0.1511
320.41	0.1524
320.754	0.154
321.097	0.1545
321.44	0.1557
321.783	0.1574
322.126	0.1589
322.469	0.1597
322.812	0.161
323.155	0.1629
323.498	0.1635
323.84	0.1653
324.183	0.1667
324.525	0.1684
324.868	0.1704
325.21	0.1708
325.552	0.1733
325.894	0.1742
326.236	0.1755
326.578	0.177
326.92	0.1792
327.262	0.181
327.604	0.1818
327.946	0.1833
328.287	0.1853
328.629	0.1871
328.97	0.1885
329.312	0.1902
329.653	0.1917
329.994	0.1932
330.335	0.1952
330.676	0.1975
331.017	0.1988
331.358	0.2016
331.699	0.2033
332.04	0.2044
332.38	0.206
332.721	0.2067
333.061	0.2093
333.402	0.2115
333.742	0.2129
334.083	0.2151
334.423	0.2157
334.763	0.2174
335.103	0.2188
335.443	0.2207
335.783	0.2214
336.123	0.2232
336.462	0.2243
336.802	0.2265
337.141	0.228
337.481	0.2283
337.82	0.2307
338.16	0.2313
338.499	0.2334
338.838	0.2342
339.177	0.2374
339.516	0.2378
339.855	0.239
340.194	0.2399
340.533	0.2406
340.872	0.2423
341.21	0.2432
341.549	0.2442
341.887	0.2459
342.226	0.2466
342.564	0.2473
342.902	0.2477
343.24	0.248
343.578	0.249
343.916	0.2491
344.254	0.2503
344.592	0.2499
344.93	0.2507
345.268	0.251
345.605	0.2508
345.943	0.2519
346.28	0.252
346.618	0.2524
346.955	0.2526
347.292	0.2526
347.629	0.2536
347.966	0.253
348.303	0.2535
348.64	0.2544
348.977	0.2544
349.314	0.2549
349.65	0.2537
349.987	0.2546
350.324	0.2551
350.66	0.2542
350.996	0.2537
351.333	0.2536
351.669	0.2528
352.005	0.2523
352.341	0.2508
352.677	0.2506
353.013	0.25
353.349	0.25
353.685	0.2475
354.02	0.2464
354.356	0.2448
354.691	0.2445
355.027	0.2431
355.362	0.2437
355.697	0.2426
356.033	0.2412
356.368	0.2402
356.703	0.2392
357.038	0.2387
357.373	0.2374
357.707	0.2363
358.042	0.2355
358.377	0.235
358.711	0.2334
359.046	0.2328
359.38	0.2313
359.715	0.2309
360.049	0.2296
360.383	0.2287
360.717	0.227
361.051	0.2258
361.385	0.2243
361.719	0.2217
362.053	0.2199
362.387	0.2187
362.72	0.2166
363.054	0.2154
363.387	0.2138
363.721	0.2115
364.054	0.2094
364.387	0.2081
364.721	0.2066
365.054	0.2042
365.387	0.2026
365.72	0.2011
366.053	0.1989
366.385	0.1969
366.718	0.1963
367.051	0.1944
367.383	0.1932
367.716	0.1913
368.048	0.1907
368.381	0.1891
368.713	0.1875
369.045	0.1875
369.377	0.1849
369.709	0.1839
370.041	0.1824
370.373	0.1805
370.705	0.1781
371.037	0.1773
371.368	0.1757
371.7	0.1752
372.031	0.1721
372.363	0.1703
372.694	0.168
373.025	0.1663
373.356	0.1634
373.688	0.1623
374.019	0.1598
374.35	0.1574
374.68	0.1563
375.011	0.1546
375.342	0.1514
375.673	0.1502
376.003	0.1477
376.334	0.1459
376.664	0.1437
376.995	0.1423
377.325	0.1399
377.655	0.1396
377.985	0.1374
378.315	0.1362
378.645	0.1351
378.975	0.1334
379.305	0.1321
379.635	0.1315
379.964	0.1299
380.294	0.1276
380.623	0.1273
380.953	0.1258
381.282	0.1236
381.611	0.1221
381.941	0.121
382.27	0.1191
382.599	0.1177
382.928	0.1154
383.257	0.1153
383.585	0.1132
383.914	0.1125
384.243	0.1104
384.571	0.1085
384.9	0.1065
385.228	0.105
385.557	0.1029
385.885	0.1014
386.213	0.0998
386.541	0.0986
386.869	0.0969
387.197	0.095
387.525	0.0934
387.853	0.0917
388.181	0.0903
388.508	0.0882
388.836	0.0871
389.164	0.0856
389.491	0.0847
389.818	0.0839
390.146	0.0816
390.473	0.0811
390.8	0.0797
391.127	0.0784
391.454	0.0772
391.781	0.0763
392.108	0.0756
392.435	0.0738
392.761	0.0728
393.088	0.0723
393.415	0.0714
393.741	0.0706
394.067	0.0696
394.394	0.0691
394.72	0.0675
395.046	0.0671
395.372	0.0664
395.698	0.0652
396.024	0.0643
396.35	0.0634
396.676	0.0619
397.001	0.061
397.327	0.0604
397.653	0.0593
397.978	0.0577
398.303	0.0574
398.629	0.0556
398.954	0.0557
399.279	0.0545
399.604	0.0539
399.929	0.0535
400.254	0.0527
400.579	0.0522
400.904	0.0515
401.229	0.0505
401.553	0.0501
401.878	0.0503
402.202	0.0483
402.527	0.0485
402.851	0.0481
403.175	0.0469
403.5	0.0475
403.824	0.0463
404.148	0.0468
404.472	0.0451
404.796	0.0451
405.119	0.0444
405.443	0.0442
405.767	0.0434
406.09	0.0437
406.414	0.0433
406.737	0.043
407.061	0.043
407.384	0.0428
407.707	0.0427
408.03	0.0419
408.353	0.0425
408.676	0.0422
408.999	0.0417
409.322	0.0415
409.645	0.0417
409.968	0.0411
410.29	0.0409
410.613	0.0417
410.935	0.0409
411.258	0.0403
411.58	0.0407
411.902	0.0403
412.224	0.0401
412.546	0.0401
412.868	0.0402
413.19	0.0399
413.512	0.0402
413.834	0.0395
414.156	0.0398
414.477	0.0401
414.799	0.0401
415.121	0.04
415.442	0.0399
415.763	0.0401
416.085	0.0396
416.406	0.04
416.727	0.0399
417.048	0.0397
417.369	0.0395
417.69	0.0393
418.011	0.0392
418.331	0.0396
418.652	0.0394
418.973	0.0396
419.293	0.0396
419.614	0.04
419.934	0.0403
420.254	0.0402
420.574	0.0402
420.895	0.0394
421.215	0.0399
421.535	0.0396
421.855	0.0393
422.174	0.0395
422.494	0.039
422.814	0.0393
423.134	0.04
423.453	0.0398
423.773	0.04
424.092	0.0396
424.411	0.0394
424.731	0.0398
425.05	0.0394
425.369	0.0397
425.688	0.0396
426.007	0.0392
426.326	0.04
426.644	0.0397
426.963	0.0398
427.282	0.0395
427.6	0.0398
427.919	0.0396
428.237	0.0398
428.556	0.0396
428.874	0.0403
429.192	0.0402
429.51	0.0405
429.828	0.0401
430.146	0.0404
430.464	0.0392
430.782	0.0402
431.1	0.0397
431.418	0.0399
431.735	0.0401
432.053	0.0405
432.37	0.0402
432.688	0.04
433.005	0.0401
433.322	0.0401
433.639	0.0404
433.957	0.0409
434.274	0.0402
434.591	0.0401
434.907	0.0399
435.224	0.0403
435.541	0.04
435.858	0.0408
436.174	0.0412
436.491	0.0401
436.807	0.0393
437.124	0.0397
437.44	0.0399
437.756	0.0404
438.072	0.0407
438.388	0.0403
438.704	0.04
439.02	0.0395
439.336	0.0395
439.652	0.0395
439.968	0.0391
440.283	0.039
440.599	0.0391
440.914	0.0391
441.23	0.0399
441.545	0.039
441.86	0.0393
442.175	0.0388
442.491	0.0395
442.806	0.0396
443.121	0.0389
443.435	0.0385
443.75	0.039
444.065	0.0382
444.38	0.0391
444.694	0.0386
445.009	0.0382
445.323	0.0388
445.638	0.0376
445.952	0.0386
446.266	0.0389
446.58	0.0388
446.894	0.0385
447.208	0.0384
447.522	0.0379
447.836	0.038
448.15	0.0372
448.464	0.0383
448.777	0.0375
449.091	0.0374
449.404	0.0378
449.718	0.0368
450.031	0.0369
450.345	0.0367
450.658	0.0373
450.971	0.0373
451.284	0.0366
451.597	0.0362
451.91	0.0364
452.223	0.0363
452.535	0.0359
452.848	0.0362
453.161	0.0358
453.473	0.0359
453.786	0.0357
454.098	0.0359
454.411	0.0354
454.723	0.035
455.035	0.0349
455.347	0.0341
455.659	0.0347
455.971	0.0354
456.283	0.035
456.595	0.0346
456.907	0.035
457.218	0.034
457.53	0.0332
457.841	0.0332
458.153	0.0342
458.464	0.0336
458.776	0.0343
459.087	0.0331
459.398	0.0331
459.709	0.0331
460.02	0.0327
460.331	0.0315
460.642	0.0325
460.953	0.0319
461.263	0.0317
461.574	0.0319
461.885	0.031
462.195	0.0315
462.506	0.0313
462.816	0.0313
463.126	0.0316
463.437	0.0312
463.747	0.0305
464.057	0.0297
464.367	0.03
464.677	0.0298
464.987	0.0291
465.296	0.0299
465.606	0.0281
465.916	0.0286
466.225	0.0288
466.535	0.0287
466.844	0.0292
467.154	0.0297
467.463	0.0279
467.772	0.0281
468.081	0.0275
468.39	0.0273
468.699	0.0274
469.008	0.0269
469.317	0.0274
469.626	0.0255
469.935	0.0257
470.243	0.0262
470.552	0.0256
470.86	0.0264
471.169	0.0259
471.477	0.0257
471.785	0.0251
472.093	0.0258
472.402	0.0249
472.71	0.0255
473.018	0.0248
473.326	0.0235
473.633	0.0245
473.941	0.0245
474.249	0.0233
474.556	0.0239
474.864	0.0242
475.171	0.023
475.479	0.0224
475.786	0.0222
476.094	0.0223
476.401	0.0218
476.708	0.0219
477.015	0.0217
477.322	0.0224
477.629	0.0217
477.936	0.0221
478.242	0.0206
478.549	0.0211
478.856	0.0213
479.162	0.0204
479.469	0.0209
479.775	0.0207
480.081	0.0204
480.388	0.0193
480.694	0.0195
481	0.0195
481.306	0.0189
481.612	0.0193
481.918	0.019
482.224	0.0183
482.53	0.018
482.835	0.0184
483.141	0.0187
483.446	0.0185
483.752	0.0174
484.057	0.0177
484.363	0.0165
484.668	0.0166
484.973	0.0162
485.278	0.0157
485.583	0.0165
485.888	0.0158
486.193	0.0149
486.498	0.0144
486.803	0.015
487.107	0.0156
487.412	0.0147
487.717	0.0145
488.021	0.0141
488.325	0.0154
488.63	0.0154
488.934	0.0147
489.238	0.0143
489.542	0.013
489.846	0.0145
490.15	0.0143
490.454	0.0138
490.758	0.0131
491.062	0.0125
491.366	0.0126
491.669	0.0122
491.973	0.0132
492.276	0.0122
492.58	0.0122
492.883	0.0118
493.186	0.0117
493.489	0.0114
493.792	0.0111
494.096	0.0108
494.399	0.0102
494.701	0.0115
495.004	0.0091
495.307	0.0109
495.61	0.0096
495.912	0.01
496.215	0.0094
496.517	0.0087
496.82	0.0101
497.122	0.0091
497.424	0.0102
497.727	0.0088
498.029	0.0078
498.331	0.0093
498.633	0.0093
498.935	0.0084
499.237	0.0086
499.538	0.0083
499.84	0.0082
500.142	0.008
500.443	0.0064
500.745	0.0072
501.046	0.006
501.348	0.007
501.649	0.0054
501.95	0.0057
502.251	0.0066
502.552	0.0063
502.853	0.0058
503.154	0.0064
503.455	0.0065
503.756	0.0058
504.057	0.0064
504.357	0.0055
504.658	0.006
504.958	0.0053
505.259	0.0054
505.559	0.0043
505.859	0.0049
506.16	0.0049
506.46	0.0051
506.76	0.0047
507.06	0.0045
507.36	0.0045
507.66	0.0038
507.96	0.005
508.259	0.0043
508.559	0.0042
508.859	0.0039
509.158	0.0045
509.457	0.0033
509.757	0.0041
510.056	0.0044
510.355	0.0037
510.655	0.0034
510.954	0.0038
511.253	0.0033
511.552	0.0035
511.851	0.0039
512.149	0.0019
512.448	0.0033
512.747	0.0036
513.045	0.0015
513.344	0.0026
513.642	0.0021
513.941	0.0021
514.239	0.0026
514.537	0.0014
514.836	0.0023
515.134	0.0019
515.432	0.0029
515.73	0.0016
516.028	0.0019
516.326	0.0018
516.623	0.0017
516.921	0.0004
517.219	0.0014
517.516	0.0018
517.814	0.0011
518.111	0.0019
518.409	0.0012
518.706	0.0005
519.003	0.0011
519.3	0.0015
519.597	0.0004
519.894	0.0014
520.191	0.0009
520.488	0.001
520.785	-0.0007
521.082	0.0007
521.378	-0.0003
521.675	0.0004
521.971	0
522.268	0.0016
522.564	0.0005
522.861	0.0013
523.157	0.0007
523.453	0.0009
523.749	0.0009
524.045	0.0008
524.341	0.0009
524.637	0.0001
524.933	0.0003
525.229	-0
525.524	-0.0011
525.82	0.0003
526.115	-0.0009
526.411	0.0005
526.706	-0.0008
527.002	0.0003
527.297	-0.0015
527.592	0.0005
527.887	0.0012
528.182	-0.0007
528.477	0.0011
528.772	0.0001
529.067	-0.0002
529.362	0.0001
529.657	-0.0003
529.951	-0.0002
530.246	-0.0012
530.54	-0
530.835	-0.0009
531.129	-0.0005
531.423	-0.0007
531.718	-0.0009
532.012	-0.0008
532.306	-0.0012
532.6	-0.0009
532.894	-0.0007
533.188	0.0005
533.482	-0.0005
533.775	-0.0006
534.069	-0.0018
534.363	-0.0018
534.656	-0.0029
534.95	-0.0001
535.243	-0.0018
535.536	-0.0002
535.83	-0.0024
536.123	-0.0005
536.416	-0.0007
536.709	-0.0011
537.002	-0.0009
537.295	-0.001
537.588	-0.0015
537.881	-0.0017
538.173	-0.0008
538.466	-0.0019
538.759	-0.001
539.051	-0.0011
539.344	-0.001
539.636	-0.0016
539.928	-0.0008
540.22	0
540.513	-0.0001
540.805	0.0001
541.097	-0.0023
541.389	-0.002
541.681	-0.0004
541.972	-0.0001
542.264	0.0003
542.556	-0
542.847	0.0003
543.139	0.0002
543.431	-0.0006
543.722	0
544.013	0.0006
544.305	-0
544.596	-0.0014
544.887	-0.0007
545.178	0
545.469	-0.0016
545.76	-0.0004
546.051	0.0004
546.342	-0.0011
546.632	-0.0008
546.923	-0.0009
547.214	-0.0013
547.504	-0.0018
547.795	-0.002
548.085	-0.0027
548.375	-0.0003
548.666	-0.0021
548.956	-0.0012
549.246	-0.0013
549.536	-0.0002
549.826	-0.0009
550.116	-0.0006
550.406	-0.0016
550.695	-0.0019
550.985	0.0001
551.275	-0.0008
551.564	-0.0006
551.854	0.0004
552.143	-0.0018
552.433	-0.0019
552.722	-0.0023
553.011	-0.0008
553.3	0.0004
553.589	0.0001
553.879	-0.0014
554.167	-0.0007
554.456	-0.0007
554.745	-0.0004
555.034	-0.002
555.323	-0.0002
555.611	-0.0004
555.9	-0.0009
556.188	-0.0022
556.477	-0.0009
556.765	-0.0027
557.053	-0.0013
557.342	-0.0015
557.63	-0.0007
557.918	0.0001
558.206	0.0003
558.494	0.0006
558.782	-0.0011
559.069	0.0013
559.357	0.0012
559.645	0.0004
559.932	0.0001
560.22	-0.0008
560.507	-0.0013
560.795	-0.0005
561.082	-0.0024
561.37	-0.0007
561.657	-0.0021
561.944	-0.0014
562.231	-0.0012
562.518	-0.001
562.805	-0.0009
563.092	-0
563.379	-0.0003
563.665	0.0011
563.952	0
564.239	-0.0006
564.525	-0.0002
564.811	0.0016
565.098	-0.0001
565.384	-0.0009
565.67	0.0006
565.957	0.0005
566.243	0.0018
566.529	0.0004
566.815	0.0002
567.101	0.0007
567.387	0.0005
567.672	0.0008
567.958	0.001
568.244	-0.0002
568.529	0.0004
568.815	-0.0001
569.1	-0.0006
569.386	-0.0015
569.671	0.0002
569.956	-0.0008
570.242	-0.0005
570.527	-0.0011
570.812	-0.0003
571.097	-0.0004
571.382	-0.0011
571.666	0.0005
571.951	-0.0008
572.236	-0.0004
572.521	-0.0003
572.805	0.0003
573.09	-0.0001
573.374	-0.0011
573.659	-0.0009
573.943	-0.0012
574.227	-0.0009
574.511	-0.0013
574.795	-0.0002
575.079	-0.0012
575.363	-0.0015
575.647	-0.0015
575.931	-0.0005
576.215	-0.0013
576.499	-0.0012
576.782	-0.0014
577.066	-0.0009
577.349	0.0002
577.633	-0.0008
577.916	-0.0012
578.2	-0.0011
578.483	-0.0007
578.766	-0.0005
579.049	-0.0011
579.332	0.0004
579.615	0.0001
579.898	-0.0004
580.181	-0.0001
580.464	0.0007
580.746	-0.0007
581.029	-0.0004
581.312	-0.0008
581.594	-0.0015
581.877	-0.002
582.159	-0.0015
582.441	-0.0015
582.724	-0.0015
583.006	-0.0002
583.288	-0.0005
583.57	0.0004
583.852	0
584.134	0.0004
584.416	-0.0003
584.697	-0.0004
584.979	-0.0019
585.261	-0.002
585.542	-0.0018
585.824	-0.0018
586.105	-0.0022
586.387	-0.0017
586.668	-0.001
586.949	-0.0008
587.231	-0
587.512	-0.0004
587.793	-0.0006
588.074	-0.0006
588.355	0.0003
588.636	-0.0011
588.916	-0.0012
589.197	-0.0001
589.478	-0.001
589.758	-0.0003
590.039	-0.0005
590.319	0.0004
590.6	0.0001
590.88	0.0005
591.16	0.0013
591.441	0.0016
591.721	-0.0001
592.001	-0.0007
592.281	-0.0003
592.561	-0.0007
592.841	-0.0014
593.12	-0.0023
593.4	-0.0022
593.68	-0.0027
593.959	-0.0019
