Data from 03 0.5 mM K2Cr2O7 0.3 mM BQDS 1 M H2SO4 5 min_Absorbance_0197.txt Node
Date: Tue Dec 14 10:04:45 EST 2021
User: kwabilab-user
Spectrometer: HDX00518
Trigger mode: 0
Integration Time (sec): 5.000000E-2
Scans to average: 50
Nonlinearity correction enabled: false
Boxcar width: 0
Storing dark spectrum: false
XAxis mode: Wavelengths
Number of Pixels in Spectrum: 2068
>>>>>Begin Spectral Data<<<<<
195.27	0.0104
195.642	0.0641
196.014	-0.0237
196.386	0.1933
196.758	0.0112
197.129	0.0124
197.501	0.0135
197.872	0.0262
198.244	0.0316
198.615	0.054
198.986	0.0529
199.357	0.0565
199.728	0.0384
200.099	0.051
200.47	0.0304
200.841	0.0496
201.212	0.0634
201.582	0.0628
201.953	0.0474
202.323	0.0674
202.694	0.0479
203.064	0.0563
203.434	0.0632
203.804	0.0379
204.174	0.0679
204.544	0.0542
204.914	0.034
205.284	0.0887
205.653	0.0274
206.023	0.0491
206.393	0.0145
206.762	0.0556
207.131	0.0762
207.501	0.037
207.87	0.0684
208.239	0.0612
208.608	0.054
208.977	0.0412
209.346	0.0614
209.715	0.0402
210.083	0.0199
210.452	0.0567
210.82	0.0539
211.189	0.0301
211.557	0.0469
211.925	0.0296
212.294	0.0771
212.662	0.0443
213.03	0.0578
213.398	0.0728
213.766	0.0571
214.133	0.0642
214.501	0.0829
214.869	0.0636
215.236	0.055
215.604	0.0639
215.971	0.0895
216.338	0.0807
216.705	0.0691
217.072	0.0942
217.439	0.0781
217.806	0.0863
218.173	0.0922
218.54	0.0765
218.907	0.1225
219.273	0.1048
219.64	0.0919
220.006	0.1199
220.373	0.1168
220.739	0.1429
221.105	0.145
221.471	0.1693
221.837	0.1731
222.203	0.2028
222.569	0.2082
222.935	0.2424
223.3	0.2437
223.666	0.2543
224.031	0.2885
224.397	0.3236
224.762	0.3228
225.127	0.3344
225.493	0.3859
225.858	0.3964
226.223	0.4254
226.588	0.437
226.952	0.4698
227.317	0.4733
227.682	0.4883
228.046	0.5038
228.411	0.5376
228.775	0.5435
229.14	0.5466
229.504	0.5646
229.868	0.5821
230.232	0.5927
230.596	0.6023
230.96	0.6287
231.324	0.6254
231.688	0.6329
232.052	0.644
232.415	0.6325
232.779	0.6538
233.142	0.6732
233.505	0.6631
233.869	0.6763
234.232	0.6685
234.595	0.6581
234.958	0.6648
235.321	0.6743
235.684	0.6701
236.047	0.666
236.409	0.6496
236.772	0.6615
237.134	0.6652
237.497	0.6706
237.859	0.6748
238.222	0.6609
238.584	0.659
238.946	0.6523
239.308	0.656
239.67	0.6423
240.032	0.6422
240.393	0.6451
240.755	0.6375
241.117	0.6459
241.478	0.6432
241.84	0.6399
242.201	0.6313
242.562	0.6319
242.924	0.6299
243.285	0.6188
243.646	0.6183
244.007	0.6127
244.368	0.6125
244.728	0.614
245.089	0.6142
245.45	0.6159
245.81	0.6058
246.171	0.6122
246.531	0.6034
246.891	0.5975
247.252	0.5999
247.612	0.5924
247.972	0.5999
248.332	0.5994
248.692	0.5965
249.051	0.5973
249.411	0.5959
249.771	0.5848
250.13	0.5888
250.49	0.5887
250.849	0.5909
251.208	0.581
251.568	0.5853
251.927	0.5861
252.286	0.5862
252.645	0.5849
253.004	0.5917
253.363	0.5796
253.721	0.5813
254.08	0.5791
254.439	0.5783
254.797	0.5735
255.155	0.5742
255.514	0.5701
255.872	0.5758
256.23	0.5708
256.588	0.5772
256.946	0.5702
257.304	0.5652
257.662	0.5697
258.02	0.5723
258.377	0.5667
258.735	0.5645
259.093	0.5612
259.45	0.5609
259.807	0.5577
260.165	0.56
260.522	0.5574
260.879	0.5525
261.236	0.5553
261.593	0.5485
261.95	0.5439
262.306	0.5476
262.663	0.5416
263.02	0.5421
263.376	0.5405
263.733	0.533
264.089	0.5322
264.445	0.529
264.802	0.531
265.158	0.5312
265.514	0.5255
265.87	0.5228
266.226	0.5182
266.581	0.5194
266.937	0.5132
267.293	0.5137
267.648	0.5133
268.004	0.5141
268.359	0.5029
268.714	0.4963
269.07	0.4996
269.425	0.4917
269.78	0.4941
270.135	0.4897
270.49	0.4869
270.844	0.4808
271.199	0.4836
271.554	0.4785
271.908	0.4737
272.263	0.4744
272.617	0.4683
272.972	0.4662
273.326	0.4589
273.68	0.4584
274.034	0.457
274.388	0.4555
274.742	0.4518
275.096	0.4454
275.45	0.4477
275.803	0.4388
276.157	0.4375
276.51	0.4323
276.864	0.4256
277.217	0.4281
277.571	0.4206
277.924	0.4157
278.277	0.4106
278.63	0.4117
278.983	0.4061
279.336	0.4009
279.688	0.4007
280.041	0.395
280.394	0.3925
280.746	0.3865
281.099	0.3826
281.451	0.3775
281.803	0.3754
282.156	0.3685
282.508	0.3664
282.86	0.3636
283.212	0.3613
283.564	0.3565
283.916	0.3536
284.267	0.3484
284.619	0.3432
284.971	0.3387
285.322	0.335
285.673	0.3306
286.025	0.325
286.376	0.3248
286.727	0.3191
287.078	0.3172
287.429	0.3123
287.78	0.3083
288.131	0.3054
288.482	0.3015
288.833	0.2958
289.183	0.2918
289.534	0.2871
289.884	0.2843
290.235	0.2811
290.585	0.2781
290.935	0.2737
291.285	0.2668
291.635	0.2659
291.985	0.2625
292.335	0.2586
292.685	0.2567
293.035	0.252
293.384	0.2486
293.734	0.2459
294.083	0.2398
294.433	0.2348
294.782	0.2333
295.131	0.2293
295.48	0.2254
295.829	0.223
296.179	0.2203
296.527	0.2164
296.876	0.2127
297.225	0.2095
297.574	0.2053
297.922	0.2038
298.271	0.201
298.619	0.1976
298.968	0.194
299.316	0.1903
299.664	0.1887
300.012	0.1863
300.36	0.1823
300.708	0.1805
301.056	0.1777
301.404	0.1753
301.752	0.1744
302.099	0.1705
302.447	0.1682
302.794	0.1665
303.142	0.1643
303.489	0.1621
303.836	0.1597
304.183	0.1576
304.531	0.1566
304.878	0.1549
305.224	0.1536
305.571	0.1505
305.918	0.15
306.265	0.1482
306.611	0.1469
306.958	0.1467
307.304	0.1434
307.651	0.1435
307.997	0.1431
308.343	0.1421
308.689	0.1409
309.035	0.1395
309.381	0.1387
309.727	0.1382
310.073	0.1388
310.419	0.1373
310.764	0.1362
311.11	0.1362
311.455	0.1356
311.801	0.1349
312.146	0.1351
312.491	0.1351
312.837	0.1337
313.182	0.1352
313.527	0.1348
313.872	0.1349
314.216	0.135
314.561	0.1343
314.906	0.1346
315.251	0.1352
315.595	0.1362
315.94	0.136
316.284	0.1368
316.628	0.137
316.972	0.1382
317.317	0.1381
317.661	0.1387
318.005	0.1393
318.348	0.1405
318.692	0.1417
319.036	0.1413
319.38	0.142
319.723	0.1426
320.067	0.1444
320.41	0.1454
320.754	0.1468
321.097	0.1482
321.44	0.1488
321.783	0.1503
322.126	0.1524
322.469	0.1517
322.812	0.1528
323.155	0.155
323.498	0.1557
323.84	0.1579
324.183	0.1598
324.525	0.1609
324.868	0.162
325.21	0.1628
325.552	0.1652
325.894	0.1662
326.236	0.1678
326.578	0.1687
326.92	0.1708
327.262	0.1725
327.604	0.1739
327.946	0.1757
328.287	0.177
328.629	0.1794
328.97	0.1808
329.312	0.1823
329.653	0.1835
329.994	0.1856
330.335	0.186
330.676	0.1893
331.017	0.191
331.358	0.1927
331.699	0.1941
332.04	0.1958
332.38	0.1967
332.721	0.1978
333.061	0.2007
333.402	0.2027
333.742	0.204
334.083	0.2059
334.423	0.2071
334.763	0.2083
335.103	0.2099
335.443	0.211
335.783	0.2127
336.123	0.2148
336.462	0.2161
336.802	0.2174
337.141	0.2182
337.481	0.219
337.82	0.2208
338.16	0.222
338.499	0.2238
338.838	0.2247
339.177	0.227
339.516	0.2284
339.855	0.2296
340.194	0.2302
340.533	0.2319
340.872	0.2324
341.21	0.2343
341.549	0.2346
341.887	0.2359
342.226	0.2361
342.564	0.2381
342.902	0.2381
343.24	0.2394
343.578	0.2387
343.916	0.2398
344.254	0.2397
344.592	0.241
344.93	0.2414
345.268	0.241
345.605	0.2414
345.943	0.2426
346.28	0.2422
346.618	0.2427
346.955	0.2432
347.292	0.2433
347.629	0.2434
347.966	0.2444
348.303	0.2446
348.64	0.2449
348.977	0.2439
349.314	0.2449
349.65	0.2444
349.987	0.2448
350.324	0.2453
350.66	0.2446
350.996	0.2433
351.333	0.2439
351.669	0.2435
352.005	0.2428
352.341	0.2419
352.677	0.241
353.013	0.2398
353.349	0.2393
353.685	0.2382
354.02	0.2374
354.356	0.236
354.691	0.2354
355.027	0.2343
355.362	0.2345
355.697	0.233
356.033	0.2325
356.368	0.2312
356.703	0.2307
357.038	0.2306
357.373	0.2279
357.707	0.2278
358.042	0.2272
358.377	0.226
358.711	0.2252
359.046	0.224
359.38	0.2231
359.715	0.2214
360.049	0.2206
360.383	0.2201
360.717	0.2183
361.051	0.217
361.385	0.2158
361.719	0.2137
362.053	0.2119
362.387	0.2109
362.72	0.2084
363.054	0.2073
363.387	0.2057
363.721	0.2036
364.054	0.2013
364.387	0.1999
364.721	0.1984
365.054	0.1966
365.387	0.1952
365.72	0.1932
366.053	0.1915
366.385	0.1901
366.718	0.1881
367.051	0.187
367.383	0.1856
367.716	0.1839
368.048	0.1835
368.381	0.1814
368.713	0.1804
369.045	0.18
369.377	0.1778
369.709	0.1772
370.041	0.1751
370.373	0.1736
370.705	0.1717
371.037	0.1696
371.368	0.1692
371.7	0.1684
372.031	0.1653
372.363	0.1629
372.694	0.1618
373.025	0.1593
373.356	0.1573
373.688	0.1559
374.019	0.1533
374.35	0.1516
374.68	0.1497
375.011	0.1472
375.342	0.1451
375.673	0.1443
376.003	0.141
376.334	0.1401
376.664	0.1377
376.995	0.1371
377.325	0.1349
377.655	0.1339
377.985	0.1319
378.315	0.1306
378.645	0.1289
378.975	0.1281
379.305	0.1264
379.635	0.1254
379.964	0.1246
380.294	0.1222
380.623	0.1221
380.953	0.1206
381.282	0.1192
381.611	0.1172
381.941	0.1161
382.27	0.1147
382.599	0.1127
382.928	0.111
383.257	0.1105
383.585	0.1088
383.914	0.1079
384.243	0.1059
384.571	0.1041
384.9	0.1011
385.228	0.1002
385.557	0.0985
385.885	0.0968
386.213	0.0951
386.541	0.0945
386.869	0.0923
387.197	0.0905
387.525	0.0889
387.853	0.0877
388.181	0.0863
388.508	0.0848
388.836	0.0831
389.164	0.0808
389.491	0.0811
389.818	0.0801
390.146	0.0778
390.473	0.0779
390.8	0.0764
391.127	0.0746
391.454	0.074
391.781	0.0725
392.108	0.0723
392.435	0.0701
392.761	0.0696
393.088	0.0685
393.415	0.0679
393.741	0.0677
394.067	0.0662
394.394	0.0656
394.72	0.0644
395.046	0.0641
395.372	0.0634
395.698	0.0624
396.024	0.0607
396.35	0.0603
396.676	0.0588
397.001	0.0581
397.327	0.0575
397.653	0.056
397.978	0.0551
398.303	0.0545
398.629	0.0531
398.954	0.0526
399.279	0.0518
399.604	0.0515
399.929	0.0512
400.254	0.0501
400.579	0.0504
400.904	0.0484
401.229	0.0481
401.553	0.0472
401.878	0.0466
402.202	0.0463
402.527	0.0454
402.851	0.045
403.175	0.0444
403.5	0.0442
403.824	0.0442
404.148	0.0439
404.472	0.043
404.796	0.0426
405.119	0.0426
405.443	0.0424
405.767	0.0412
406.09	0.0419
406.414	0.0414
406.737	0.0402
407.061	0.0406
407.384	0.0411
407.707	0.0407
408.03	0.0392
408.353	0.0406
408.676	0.0397
408.999	0.0395
409.322	0.0396
409.645	0.0394
409.968	0.0392
410.29	0.0392
410.613	0.0396
410.935	0.0393
411.258	0.0385
411.58	0.0383
411.902	0.0393
412.224	0.0391
412.546	0.0387
412.868	0.0383
413.19	0.0383
413.512	0.0384
413.834	0.0371
414.156	0.0377
414.477	0.0382
414.799	0.0377
415.121	0.0384
415.442	0.0378
415.763	0.0376
416.085	0.038
416.406	0.039
416.727	0.0381
417.048	0.0376
417.369	0.0378
417.69	0.0373
418.011	0.0369
418.331	0.0379
418.652	0.0382
418.973	0.0376
419.293	0.0379
419.614	0.0384
419.934	0.0382
420.254	0.0383
420.574	0.0387
420.895	0.0381
421.215	0.038
421.535	0.0381
421.855	0.0375
422.174	0.0376
422.494	0.0369
422.814	0.0377
423.134	0.0376
423.453	0.0377
423.773	0.0379
424.092	0.0384
424.411	0.0377
424.731	0.038
425.05	0.0377
425.369	0.0376
425.688	0.0379
426.007	0.0371
426.326	0.0378
426.644	0.0378
426.963	0.0385
427.282	0.0379
427.6	0.0383
427.919	0.0377
428.237	0.0385
428.556	0.0384
428.874	0.0385
429.192	0.0384
429.51	0.0388
429.828	0.0381
430.146	0.0384
430.464	0.0375
430.782	0.0381
431.1	0.0385
431.418	0.038
431.735	0.0375
432.053	0.0385
432.37	0.0382
432.688	0.0383
433.005	0.0385
433.322	0.038
433.639	0.0386
433.957	0.0388
434.274	0.0383
434.591	0.0382
434.907	0.0384
435.224	0.0384
435.541	0.0386
435.858	0.0385
436.174	0.0393
436.491	0.0375
436.807	0.0372
437.124	0.0384
437.44	0.0384
437.756	0.0376
438.072	0.0387
438.388	0.0384
438.704	0.0383
439.02	0.0381
439.336	0.0378
439.652	0.0372
439.968	0.0367
440.283	0.0367
440.599	0.038
440.914	0.0387
441.23	0.0381
441.545	0.0374
441.86	0.0371
442.175	0.0373
442.491	0.0375
442.806	0.0377
443.121	0.0369
443.435	0.0373
443.75	0.0371
444.065	0.037
444.38	0.0377
444.694	0.0375
445.009	0.0375
445.323	0.0366
445.638	0.0362
445.952	0.037
446.266	0.037
446.58	0.0367
446.894	0.0363
447.208	0.0367
447.522	0.0366
447.836	0.0364
448.15	0.0357
448.464	0.0359
448.777	0.0361
449.091	0.0357
449.404	0.0358
449.718	0.0359
450.031	0.0361
450.345	0.0354
450.658	0.0359
450.971	0.0357
451.284	0.0347
451.597	0.0345
451.91	0.0349
452.223	0.0349
452.535	0.0346
452.848	0.0354
453.161	0.0337
453.473	0.0344
453.786	0.0338
454.098	0.0341
454.411	0.0347
454.723	0.0334
455.035	0.0331
455.347	0.033
455.659	0.0333
455.971	0.0338
456.283	0.0327
456.595	0.0328
456.907	0.0332
457.218	0.0329
457.53	0.0315
457.841	0.0328
458.153	0.0323
458.464	0.0326
458.776	0.032
459.087	0.0318
459.398	0.0318
459.709	0.0318
460.02	0.0322
460.331	0.0305
460.642	0.0311
460.953	0.0303
461.263	0.0302
461.574	0.0301
461.885	0.0297
462.195	0.0299
462.506	0.0299
462.816	0.0296
463.126	0.0296
463.437	0.03
463.747	0.0284
464.057	0.0287
464.367	0.0286
464.677	0.028
464.987	0.0273
465.296	0.0283
465.606	0.0272
465.916	0.0277
466.225	0.0274
466.535	0.0275
466.844	0.0275
467.154	0.0268
467.463	0.0263
467.772	0.0266
468.081	0.0266
468.39	0.0263
468.699	0.0259
469.008	0.025
469.317	0.0255
469.626	0.0245
469.935	0.0247
470.243	0.0245
470.552	0.0254
470.86	0.0247
471.169	0.0242
471.477	0.0245
471.785	0.0242
472.093	0.0241
472.402	0.0237
472.71	0.0236
473.018	0.0226
473.326	0.0223
473.633	0.0233
473.941	0.0234
474.249	0.0222
474.556	0.0228
474.864	0.0226
475.171	0.022
475.479	0.0213
475.786	0.0213
476.094	0.0208
476.401	0.0213
476.708	0.0217
477.015	0.0208
477.322	0.0214
477.629	0.0212
477.936	0.0205
478.242	0.0194
478.549	0.0193
478.856	0.0199
479.162	0.0192
479.469	0.0197
479.775	0.0196
480.081	0.0183
480.388	0.0181
480.694	0.0185
481	0.0184
481.306	0.0181
481.612	0.0172
481.918	0.0177
482.224	0.0181
482.53	0.0173
482.835	0.0171
483.141	0.0165
483.446	0.0167
483.752	0.0164
484.057	0.0159
484.363	0.0161
484.668	0.0155
484.973	0.0147
485.278	0.0153
485.583	0.0156
485.888	0.0153
486.193	0.0141
486.498	0.0138
486.803	0.0142
487.107	0.0149
487.412	0.0138
487.717	0.0141
488.021	0.0139
488.325	0.0146
488.63	0.0137
488.934	0.0138
489.238	0.0134
489.542	0.0124
489.846	0.013
490.15	0.0128
490.454	0.0124
490.758	0.0129
491.062	0.0122
491.366	0.012
491.669	0.0109
491.973	0.0127
492.276	0.0121
492.58	0.0113
492.883	0.0108
493.186	0.0109
493.489	0.0103
493.792	0.01
494.096	0.0101
494.399	0.0101
494.701	0.0106
495.004	0.0097
495.307	0.0104
495.61	0.0097
495.912	0.0102
496.215	0.0083
496.517	0.0084
496.82	0.0086
497.122	0.0079
497.424	0.008
497.727	0.0091
498.029	0.008
498.331	0.0085
498.633	0.0086
498.935	0.0083
499.237	0.008
499.538	0.0077
499.84	0.0074
500.142	0.007
500.443	0.0063
500.745	0.0064
501.046	0.0061
501.348	0.0061
501.649	0.0062
501.95	0.005
502.251	0.0058
502.552	0.0064
502.853	0.0053
503.154	0.0053
503.455	0.0054
503.756	0.0057
504.057	0.0059
504.357	0.0042
504.658	0.0048
504.958	0.0056
505.259	0.0051
505.559	0.0046
505.859	0.0038
506.16	0.0045
506.46	0.0047
506.76	0.0043
507.06	0.0052
507.36	0.004
507.66	0.0039
507.96	0.004
508.259	0.004
508.559	0.0042
508.859	0.0042
509.158	0.003
509.457	0.0031
509.757	0.0032
510.056	0.0028
510.355	0.0042
510.655	0.0023
510.954	0.0029
511.253	0.003
511.552	0.0033
511.851	0.0021
512.149	0.0014
512.448	0.002
512.747	0.0033
513.045	0.0033
513.344	0.002
513.642	0.0012
513.941	0.0012
514.239	0.0019
514.537	0.0009
514.836	0.0017
515.134	0.0006
515.432	0.0024
515.73	0.0016
516.028	0.0013
516.326	0.0017
516.623	0.0017
516.921	0.0003
517.219	0.001
517.516	0.0013
517.814	0.0016
518.111	0.0016
518.409	0.0001
518.706	0.0013
519.003	0.002
519.3	0.0012
519.597	0.0007
519.894	0.0016
520.191	0.0007
520.488	0.0015
520.785	0.0002
521.082	0.0013
521.378	-0.0001
521.675	0.0003
521.971	-0.0001
522.268	0.0014
522.564	0.0013
522.861	0.0016
523.157	0.0007
523.453	0.0013
523.749	0.001
524.045	0.001
524.341	0.0012
524.637	-0.0001
524.933	-0
525.229	0.0008
525.524	-0.0004
525.82	0.0002
526.115	-0.0011
526.411	-0.0005
526.706	0.0002
527.002	0.0003
527.297	-0.0012
527.592	-0.0009
527.887	0.0007
528.182	0.0011
528.477	0.0004
528.772	0.0012
529.067	0.0002
529.362	0
529.657	0.0006
529.951	-0.0004
530.246	-0.0017
530.54	0
530.835	-0.0005
531.129	-0.0007
531.423	-0.0006
531.718	0
532.012	-0.0002
532.306	-0.0013
532.6	-0.001
532.894	-0.0004
533.188	0.0003
533.482	-0.0009
533.775	-0.0004
534.069	-0.0004
534.363	-0.0014
534.656	-0.0009
534.95	-0.0011
535.243	-0.0009
535.536	-0.0006
535.83	-0.0031
536.123	-0.0009
536.416	-0.0006
536.709	-0.0004
537.002	-0.001
537.295	-0.0011
537.588	-0.0018
537.881	-0.0024
538.173	-0.0019
538.466	-0.0017
538.759	-0.001
539.051	-0.001
539.344	-0.0008
539.636	-0.0002
539.928	-0.0009
540.22	-0.0005
540.513	-0.0007
540.805	-0.0003
541.097	-0.0022
541.389	-0.0009
541.681	-0.0009
541.972	0.0002
542.264	0.0004
542.556	-0.0006
542.847	0.0006
543.139	0.0001
543.431	0.0002
543.722	0.0009
544.013	0.0003
544.305	-0.0004
544.596	-0.0008
544.887	-0.0009
545.178	-0.0002
545.469	-0.0014
545.76	-0.001
546.051	0.0002
546.342	-0.0008
546.632	-0.0012
546.923	-0.0004
547.214	-0.0011
547.504	-0.0006
547.795	-0.0011
548.085	-0.0013
548.375	-0.0022
548.666	-0.0019
548.956	-0.0002
549.246	-0.0008
549.536	0.0004
549.826	-0.0013
550.116	-0.0004
550.406	-0.0015
550.695	-0.002
550.985	-0.0005
551.275	-0.0011
551.564	-0.0007
551.854	0.0003
552.143	-0.0013
552.433	-0.0026
552.722	-0.0017
553.011	0.0006
553.3	-0.0006
553.589	-0.0004
553.879	-0.0008
554.167	-0.0006
554.456	-0.0005
554.745	0.0001
555.034	-0.0011
555.323	0.0005
555.611	-0.0013
555.9	-0.0007
556.188	-0.0004
556.477	-0
556.765	-0.0013
557.053	-0.002
557.342	-0.0008
557.63	0.0001
557.918	0
558.206	0.0014
558.494	0.0009
558.782	-0.0001
559.069	0.0011
559.357	0.0015
559.645	0.0004
559.932	0.0002
560.22	-0.0005
560.507	-0.0016
560.795	-0.0018
561.082	-0.0016
561.37	-0.0005
561.657	-0.0009
561.944	-0.0006
562.231	-0.0007
562.518	-0.0004
562.805	0.0003
563.092	0.0006
563.379	-0
563.665	-0.0001
563.952	0.0004
564.239	0.0005
564.525	0.0004
564.811	0.0015
565.098	0.0013
565.384	0.0003
565.67	0.001
565.957	0.0017
566.243	0.0018
566.529	0.0007
566.815	0.0005
567.101	0.0015
567.387	0.0009
567.672	0.0012
567.958	0.0007
568.244	0.0011
568.529	0.0005
568.815	-0.0004
569.1	-0.0004
569.386	-0.0007
569.671	0.0009
569.956	-0.0007
570.242	0.0001
570.527	-0.0003
570.812	0.0004
571.097	-0.0002
571.382	-0.0006
571.666	0.0002
571.951	-0.0002
572.236	-0.0007
572.521	-0.0003
572.805	0.0004
573.09	-0
573.374	-0.0015
573.659	-0.0011
573.943	-0.0009
574.227	-0.0012
574.511	-0.0013
574.795	-0.0008
575.079	-0.0008
575.363	-0.0012
575.647	-0.0017
575.931	-0.0001
576.215	-0.0011
576.499	-0.0013
576.782	-0.0015
577.066	-0.001
577.349	0.0005
577.633	-0.0011
577.916	-0.0016
578.2	-0.0008
578.483	-0.0017
578.766	-0.0005
579.049	-0.0003
579.332	0.0001
579.615	0.0004
579.898	-0.0004
580.181	0.0002
580.464	0.0006
580.746	0.0002
581.029	-0.0011
581.312	-0.0014
581.594	-0.0016
581.877	-0.0017
582.159	-0.0014
582.441	-0.0017
582.724	-0.0007
583.006	-0
583.288	-0
583.57	0.001
583.852	0.0008
584.134	0.0002
584.416	-0.001
584.697	-0.0004
584.979	-0.002
585.261	-0.0031
585.542	-0.002
585.824	-0.0015
586.105	-0.0017
586.387	-0.0008
586.668	-0.0008
586.949	-0
587.231	-0.0006
587.512	-0.0001
587.793	-0.0004
588.074	-0.0019
588.355	0.0002
588.636	-0.0016
588.916	-0.0014
589.197	-0.0005
589.478	-0
589.758	-0.0002
590.039	-0.0001
590.319	-0.0001
590.6	0.0016
590.88	0.0013
591.16	0.0006
591.441	0.0007
591.721	0
592.001	-0
592.281	-0.0003
592.561	-0.0005
592.841	-0.0015
593.12	-0.0026
593.4	-0.0019
593.68	-0.0028
593.959	-0.002
594.239	-0.0017
594.518	-0.0005
