Data from 03 0.5 mM K2Cr2O7 0.3 mM BQDS 1 M H2SO4 5 min_Absorbance_0012.txt Node
Date: Mon Dec 13 18:39:46 EST 2021
User: kwabilab-user
Spectrometer: HDX00518
Trigger mode: 0
Integration Time (sec): 5.000000E-2
Scans to average: 50
Nonlinearity correction enabled: false
Boxcar width: 0
Storing dark spectrum: false
XAxis mode: Wavelengths
Number of Pixels in Spectrum: 2068
>>>>>Begin Spectral Data<<<<<
195.27	0.1173
195.642	-0.0311
196.014	-0.0219
196.386	0.0085
196.758	-0.0406
197.129	0.0083
197.501	0.0006
197.872	0.0192
198.244	0.0471
198.615	0.0563
198.986	0.0542
199.357	0.0702
199.728	0.0284
200.099	0.0633
200.47	0.035
200.841	0.048
201.212	0.0481
201.582	0.075
201.953	0.0747
202.323	0.079
202.694	0.0421
203.064	0.0551
203.434	0.0562
203.804	0.0388
204.174	0.0567
204.544	0.0671
204.914	0.0673
205.284	0.0592
205.653	0.0507
206.023	0.0489
206.393	0.0306
206.762	0.0663
207.131	0.0609
207.501	0.0457
207.87	0.0759
208.239	0.057
208.608	0.0591
208.977	0.0433
209.346	0.0675
209.715	0.0602
210.083	0.0401
210.452	0.0429
210.82	0.0684
211.189	0.0436
211.557	0.0799
211.925	0.0394
212.294	0.0771
212.662	0.0643
213.03	0.0602
213.398	0.1047
213.766	0.0691
214.133	0.0662
214.501	0.0888
214.869	0.0699
215.236	0.0539
215.604	0.0641
215.971	0.0588
216.338	0.0906
216.705	0.0876
217.072	0.0916
217.439	0.0887
217.806	0.086
218.173	0.0833
218.54	0.0809
218.907	0.1219
219.273	0.1149
219.64	0.1188
220.006	0.1358
220.373	0.121
220.739	0.1581
221.105	0.1633
221.471	0.1804
221.837	0.185
222.203	0.2142
222.569	0.2127
222.935	0.2648
223.3	0.2606
223.666	0.2839
224.031	0.3098
224.397	0.3128
224.762	0.3552
225.127	0.3796
225.493	0.3933
225.858	0.4287
226.223	0.4471
226.588	0.4781
226.952	0.4859
227.317	0.5129
227.682	0.5084
228.046	0.5365
228.411	0.5631
228.775	0.5717
229.14	0.5997
229.504	0.6171
229.868	0.6337
230.232	0.6383
230.596	0.652
230.96	0.6826
231.324	0.6585
231.688	0.6805
232.052	0.7129
232.415	0.7109
232.779	0.7267
233.142	0.7223
233.505	0.7384
233.869	0.7514
234.232	0.7523
234.595	0.7306
234.958	0.7603
235.321	0.7732
235.684	0.7468
236.047	0.7792
236.409	0.7487
236.772	0.7704
237.134	0.7763
237.497	0.7733
237.859	0.7846
238.222	0.7844
238.584	0.7652
238.946	0.7775
239.308	0.7663
239.67	0.7709
240.032	0.7769
240.393	0.775
240.755	0.7731
241.117	0.7722
241.478	0.7684
241.84	0.7679
242.201	0.7639
242.562	0.7557
242.924	0.7523
243.285	0.7543
243.646	0.7698
244.007	0.763
244.368	0.7659
244.728	0.7649
245.089	0.7692
245.45	0.7607
245.81	0.7569
246.171	0.7648
246.531	0.7638
246.891	0.7472
247.252	0.7606
247.612	0.7563
247.972	0.7619
248.332	0.7673
248.692	0.7588
249.051	0.7559
249.411	0.7587
249.771	0.7599
250.13	0.7498
250.49	0.7544
250.849	0.7545
251.208	0.7615
251.568	0.757
251.927	0.7572
252.286	0.7664
252.645	0.7608
253.004	0.7623
253.363	0.7529
253.721	0.7547
254.08	0.7674
254.439	0.7556
254.797	0.7558
255.155	0.7466
255.514	0.7591
255.872	0.7566
256.23	0.7602
256.588	0.7654
256.946	0.7606
257.304	0.7624
257.662	0.7629
258.02	0.7585
258.377	0.7651
258.735	0.7581
259.093	0.7588
259.45	0.7536
259.807	0.7618
260.165	0.7528
260.522	0.7493
260.879	0.749
261.236	0.7545
261.593	0.7513
261.95	0.7481
262.306	0.7434
262.663	0.7456
263.02	0.7486
263.376	0.7496
263.733	0.746
264.089	0.7358
264.445	0.736
264.802	0.7437
265.158	0.7354
265.514	0.7369
265.87	0.734
266.226	0.7342
266.581	0.7325
266.937	0.736
267.293	0.73
267.648	0.7146
268.004	0.7269
268.359	0.7197
268.714	0.7166
269.07	0.7164
269.425	0.7054
269.78	0.7081
270.135	0.7125
270.49	0.7119
270.844	0.7058
271.199	0.703
271.554	0.7041
271.908	0.6915
272.263	0.6979
272.617	0.6861
272.972	0.6934
273.326	0.6856
273.68	0.6827
274.034	0.6817
274.388	0.6763
274.742	0.6696
275.096	0.6729
275.45	0.665
275.803	0.6638
276.157	0.6569
276.51	0.6505
276.864	0.6444
277.217	0.6466
277.571	0.6459
277.924	0.6389
278.277	0.6396
278.63	0.6253
278.983	0.6267
279.336	0.6221
279.688	0.6134
280.041	0.6092
280.394	0.6029
280.746	0.5979
281.099	0.5961
281.451	0.5893
281.803	0.5862
282.156	0.5791
282.508	0.5758
282.86	0.5727
283.212	0.5637
283.564	0.5575
283.916	0.5551
284.267	0.5487
284.619	0.5429
284.971	0.5405
285.322	0.5356
285.673	0.5308
286.025	0.5207
286.376	0.5179
286.727	0.5143
287.078	0.5073
287.429	0.5035
287.78	0.4986
288.131	0.4911
288.482	0.4845
288.833	0.477
289.183	0.4736
289.534	0.4671
289.884	0.4653
290.235	0.4559
290.585	0.4507
290.935	0.4443
291.285	0.4392
291.635	0.4336
291.985	0.427
292.335	0.4219
292.685	0.4196
293.035	0.4127
293.384	0.4079
293.734	0.4022
294.083	0.3956
294.433	0.39
294.782	0.3864
295.131	0.3798
295.48	0.3747
295.829	0.37
296.179	0.3632
296.527	0.3595
296.876	0.3543
297.225	0.3493
297.574	0.3423
297.922	0.34
298.271	0.3341
298.619	0.3287
298.968	0.3238
299.316	0.3195
299.664	0.3169
300.012	0.3111
300.36	0.3075
300.708	0.3031
301.056	0.2981
301.404	0.2951
301.752	0.2915
302.099	0.2874
302.447	0.2834
302.794	0.2804
303.142	0.2772
303.489	0.2724
303.836	0.2691
304.183	0.2663
304.531	0.2637
304.878	0.2614
305.224	0.2582
305.571	0.2552
305.918	0.2519
306.265	0.2498
306.611	0.2474
306.958	0.2461
307.304	0.2432
307.651	0.241
307.997	0.2391
308.343	0.2383
308.689	0.2354
309.035	0.2335
309.381	0.2327
309.727	0.2314
310.073	0.2295
310.419	0.2288
310.764	0.2269
311.11	0.2258
311.455	0.2255
311.801	0.2246
312.146	0.2237
312.491	0.223
312.837	0.2216
313.182	0.2219
313.527	0.2215
313.872	0.2211
314.216	0.2214
314.561	0.2209
314.906	0.2203
315.251	0.2194
315.595	0.2202
315.94	0.2209
316.284	0.2206
316.628	0.2212
316.972	0.2224
317.317	0.2223
317.661	0.2225
318.005	0.2224
318.348	0.2238
318.692	0.2247
319.036	0.2246
319.38	0.2254
319.723	0.2259
320.067	0.2273
320.41	0.2281
320.754	0.2292
321.097	0.2305
321.44	0.2316
321.783	0.2333
322.126	0.2347
322.469	0.2358
322.812	0.2364
323.155	0.2374
323.498	0.2393
323.84	0.2413
324.183	0.2435
324.525	0.245
324.868	0.2464
325.21	0.2467
325.552	0.2505
325.894	0.2511
326.236	0.2529
326.578	0.2535
326.92	0.2557
327.262	0.2573
327.604	0.2596
327.946	0.2605
328.287	0.263
328.629	0.2652
328.97	0.2661
329.312	0.2685
329.653	0.2706
329.994	0.2719
330.335	0.275
330.676	0.2766
331.017	0.2783
331.358	0.2813
331.699	0.2829
332.04	0.2838
332.38	0.2863
332.721	0.2877
333.061	0.2901
333.402	0.2921
333.742	0.2944
334.083	0.2967
334.423	0.2969
334.763	0.2992
335.103	0.3013
335.443	0.3026
335.783	0.3046
336.123	0.3053
336.462	0.3071
336.802	0.3096
337.141	0.31
337.481	0.3113
337.82	0.3132
338.16	0.3146
338.499	0.3171
338.838	0.3183
339.177	0.3202
339.516	0.3214
339.855	0.3235
340.194	0.3247
340.533	0.3252
340.872	0.3275
341.21	0.3285
341.549	0.3292
341.887	0.3304
342.226	0.3306
342.564	0.3329
342.902	0.3329
343.24	0.3342
343.578	0.334
343.916	0.3351
344.254	0.3356
344.592	0.3362
344.93	0.3363
345.268	0.3363
345.605	0.3358
345.943	0.3372
346.28	0.3379
346.618	0.3382
346.955	0.3386
347.292	0.3377
347.629	0.3385
347.966	0.3382
348.303	0.3389
348.64	0.3387
348.977	0.3385
349.314	0.3402
349.65	0.3394
349.987	0.3384
350.324	0.3388
350.66	0.3387
350.996	0.3378
351.333	0.3374
351.669	0.337
352.005	0.3365
352.341	0.3348
352.677	0.3338
353.013	0.3327
353.349	0.3318
353.685	0.3297
354.02	0.3287
354.356	0.3264
354.691	0.3262
355.027	0.3243
355.362	0.3239
355.697	0.3225
356.033	0.3214
356.368	0.3195
356.703	0.3188
357.038	0.3184
357.373	0.3163
357.707	0.315
358.042	0.3139
358.377	0.3137
358.711	0.3116
359.046	0.3104
359.38	0.3087
359.715	0.3077
360.049	0.306
360.383	0.3047
360.717	0.3036
361.051	0.3018
361.385	0.3001
361.719	0.2964
362.053	0.2941
362.387	0.2923
362.72	0.2903
363.054	0.2881
363.387	0.2862
363.721	0.2845
364.054	0.2813
364.387	0.2788
364.721	0.2764
365.054	0.2744
365.387	0.2722
365.72	0.2699
366.053	0.2679
366.385	0.2651
366.718	0.2631
367.051	0.2624
367.383	0.2594
367.716	0.2584
368.048	0.2573
368.381	0.2548
368.713	0.2529
369.045	0.2518
369.377	0.2493
369.709	0.2479
370.041	0.2464
370.373	0.2439
370.705	0.242
371.037	0.2398
371.368	0.2369
371.7	0.2366
372.031	0.2335
372.363	0.2306
372.694	0.2283
373.025	0.2244
373.356	0.223
373.688	0.2205
374.019	0.2176
374.35	0.2156
374.68	0.2128
375.011	0.2104
375.342	0.2068
375.673	0.2052
376.003	0.2023
376.334	0.2004
376.664	0.1973
376.995	0.1955
377.325	0.1927
377.655	0.1916
377.985	0.1897
378.315	0.1878
378.645	0.1857
378.975	0.1836
379.305	0.1826
379.635	0.1807
379.964	0.1789
380.294	0.1771
380.623	0.1752
380.953	0.1739
381.282	0.1713
381.611	0.1697
381.941	0.1682
382.27	0.166
382.599	0.1636
382.928	0.162
383.257	0.1602
383.585	0.1583
383.914	0.1565
384.243	0.1543
384.571	0.1519
384.9	0.1487
385.228	0.1477
385.557	0.1445
385.885	0.1424
386.213	0.1407
386.541	0.1387
386.869	0.1364
387.197	0.1341
387.525	0.1326
387.853	0.1297
388.181	0.1286
388.508	0.126
388.836	0.1235
389.164	0.1218
389.491	0.1215
389.818	0.1191
390.146	0.1176
390.473	0.1163
390.8	0.1147
391.127	0.1123
391.454	0.1112
391.781	0.1096
392.108	0.1082
392.435	0.1069
392.761	0.1051
393.088	0.1046
393.415	0.1034
393.741	0.1022
394.067	0.1004
394.394	0.1
394.72	0.0978
395.046	0.0972
395.372	0.0967
395.698	0.0951
396.024	0.0938
396.35	0.0927
396.676	0.0911
397.001	0.0896
397.327	0.088
397.653	0.0872
397.978	0.0857
398.303	0.0849
398.629	0.0827
398.954	0.0821
399.279	0.0807
399.604	0.08
399.929	0.0794
400.254	0.0779
400.579	0.0774
400.904	0.0763
401.229	0.0749
401.553	0.0746
401.878	0.0741
402.202	0.0724
402.527	0.072
402.851	0.0711
403.175	0.0707
403.5	0.0696
403.824	0.069
404.148	0.0686
404.472	0.0675
404.796	0.0665
405.119	0.0669
405.443	0.0667
405.767	0.0655
406.09	0.0651
406.414	0.0649
406.737	0.0639
407.061	0.0633
407.384	0.0638
407.707	0.0631
408.03	0.0624
408.353	0.0628
408.676	0.0628
408.999	0.0617
409.322	0.0618
409.645	0.0614
409.968	0.0612
410.29	0.0607
410.613	0.0604
410.935	0.0603
411.258	0.0598
411.58	0.0592
411.902	0.0596
412.224	0.0593
412.546	0.0592
412.868	0.0588
413.19	0.0586
413.512	0.0587
413.834	0.0574
414.156	0.0587
414.477	0.0584
414.799	0.058
415.121	0.0583
415.442	0.0581
415.763	0.0578
416.085	0.0573
416.406	0.0578
416.727	0.0579
417.048	0.0573
417.369	0.0569
417.69	0.0571
418.011	0.0566
418.331	0.0576
418.652	0.0575
418.973	0.0565
419.293	0.057
419.614	0.0572
419.934	0.0575
420.254	0.0571
420.574	0.0574
420.895	0.0572
421.215	0.0569
421.535	0.0572
421.855	0.0561
422.174	0.0569
422.494	0.0561
422.814	0.0568
423.134	0.0565
423.453	0.0563
423.773	0.057
424.092	0.0567
424.411	0.0562
424.731	0.0568
425.05	0.0558
425.369	0.0562
425.688	0.0564
426.007	0.0558
426.326	0.0561
426.644	0.0564
426.963	0.0568
427.282	0.0563
427.6	0.0562
427.919	0.0558
428.237	0.0566
428.556	0.0568
428.874	0.0565
429.192	0.0568
429.51	0.0567
429.828	0.0565
430.146	0.0569
430.464	0.0561
430.782	0.0563
431.1	0.0566
431.418	0.0571
431.735	0.0559
432.053	0.0563
432.37	0.0563
432.688	0.0562
433.005	0.0565
433.322	0.0569
433.639	0.0564
433.957	0.0566
434.274	0.0565
434.591	0.0557
434.907	0.0563
435.224	0.0558
435.541	0.0558
435.858	0.0567
436.174	0.0564
436.491	0.0563
436.807	0.0545
437.124	0.0553
437.44	0.0566
437.756	0.0552
438.072	0.0562
438.388	0.0555
438.704	0.0555
439.02	0.0554
439.336	0.0559
439.652	0.055
439.968	0.054
440.283	0.0541
440.599	0.0545
440.914	0.0546
441.23	0.0553
441.545	0.0544
441.86	0.0542
442.175	0.0541
442.491	0.0545
442.806	0.0543
443.121	0.054
443.435	0.0541
443.75	0.0543
444.065	0.0541
444.38	0.0547
444.694	0.0537
445.009	0.0537
445.323	0.0537
445.638	0.0523
445.952	0.0538
446.266	0.053
446.58	0.0538
446.894	0.053
447.208	0.0531
447.522	0.0528
447.836	0.0529
448.15	0.0522
448.464	0.0524
448.777	0.052
449.091	0.0522
449.404	0.0519
449.718	0.0514
450.031	0.0515
450.345	0.0514
450.658	0.052
450.971	0.0513
451.284	0.0512
451.597	0.0511
451.91	0.0503
452.223	0.0504
452.535	0.0498
452.848	0.0504
453.161	0.0494
453.473	0.0502
453.786	0.0496
454.098	0.0499
454.411	0.0499
454.723	0.0489
455.035	0.0482
455.347	0.048
455.659	0.0487
455.971	0.0489
456.283	0.0481
456.595	0.0485
456.907	0.0481
457.218	0.0474
457.53	0.0468
457.841	0.0472
458.153	0.0475
458.464	0.047
458.776	0.0469
459.087	0.0462
459.398	0.0469
459.709	0.0466
460.02	0.0468
460.331	0.0448
460.642	0.0454
460.953	0.0452
461.263	0.0445
461.574	0.0449
461.885	0.0443
462.195	0.0442
462.506	0.0443
462.816	0.0436
463.126	0.0436
463.437	0.0434
463.747	0.0429
464.057	0.0428
464.367	0.0429
464.677	0.0416
464.987	0.0417
465.296	0.0419
465.606	0.0408
465.916	0.0423
466.225	0.0411
466.535	0.0411
466.844	0.0403
467.154	0.0405
467.463	0.0395
467.772	0.0401
468.081	0.0402
468.39	0.0394
468.699	0.0392
469.008	0.0384
469.317	0.0383
469.626	0.0378
469.935	0.0373
470.243	0.0375
470.552	0.0376
470.86	0.0376
471.169	0.0369
471.477	0.0364
471.785	0.0368
472.093	0.0365
472.402	0.0356
472.71	0.0357
473.018	0.0348
473.326	0.034
473.633	0.0344
473.941	0.0346
474.249	0.035
474.556	0.0347
474.864	0.0342
475.171	0.0336
475.479	0.0338
475.786	0.0325
476.094	0.0326
476.401	0.0322
476.708	0.0322
477.015	0.0327
477.322	0.0321
477.629	0.0312
477.936	0.0315
478.242	0.0301
478.549	0.0312
478.856	0.0303
479.162	0.0293
479.469	0.0302
479.775	0.0302
480.081	0.0291
480.388	0.029
480.694	0.0289
481	0.029
481.306	0.0284
481.612	0.0284
481.918	0.0281
482.224	0.0279
482.53	0.0272
482.835	0.0279
483.141	0.0268
483.446	0.027
483.752	0.0264
484.057	0.0262
484.363	0.0251
484.668	0.0255
484.973	0.0251
485.278	0.0253
485.583	0.0245
485.888	0.0249
486.193	0.0241
486.498	0.0236
486.803	0.0241
487.107	0.0234
487.412	0.0229
487.717	0.0232
488.021	0.0222
488.325	0.023
488.63	0.0236
488.934	0.0227
489.238	0.0216
489.542	0.0209
489.846	0.022
490.15	0.0214
490.454	0.0212
490.758	0.0208
491.062	0.0203
491.366	0.0202
491.669	0.0197
491.973	0.02
492.276	0.02
492.58	0.0197
492.883	0.0186
493.186	0.0183
493.489	0.0188
493.792	0.0171
494.096	0.0179
494.399	0.0176
494.701	0.018
495.004	0.0169
495.307	0.0172
495.61	0.0168
495.912	0.0176
496.215	0.0155
496.517	0.0153
496.82	0.0159
497.122	0.0155
497.424	0.016
497.727	0.0157
498.029	0.0142
498.331	0.0153
498.633	0.0154
498.935	0.0144
499.237	0.0144
499.538	0.0132
499.84	0.0139
500.142	0.0134
500.443	0.0125
500.745	0.0126
501.046	0.0122
501.348	0.0118
501.649	0.0121
501.95	0.0121
502.251	0.012
502.552	0.012
502.853	0.0119
503.154	0.0114
503.455	0.011
503.756	0.0105
504.057	0.0122
504.357	0.0104
504.658	0.0111
504.958	0.0114
505.259	0.0111
505.559	0.0104
505.859	0.0103
506.16	0.0098
506.46	0.0101
506.76	0.0099
507.06	0.0106
507.36	0.0095
507.66	0.008
507.96	0.0099
508.259	0.0096
508.559	0.01
508.859	0.0091
509.158	0.0086
509.457	0.0081
509.757	0.009
510.056	0.0085
510.355	0.0087
510.655	0.0073
510.954	0.0081
511.253	0.0079
511.552	0.0079
511.851	0.0075
512.149	0.0058
512.448	0.0073
512.747	0.0073
513.045	0.006
513.344	0.0058
513.642	0.0062
513.941	0.0064
514.239	0.0066
514.537	0.0054
514.836	0.0062
515.134	0.0043
515.432	0.006
515.73	0.0052
516.028	0.0053
516.326	0.0055
516.623	0.0052
516.921	0.0036
517.219	0.0044
517.516	0.0049
517.814	0.0043
518.111	0.0053
518.409	0.0038
518.706	0.0038
519.003	0.0051
519.3	0.0038
519.597	0.0038
519.894	0.0045
520.191	0.0052
520.488	0.0038
520.785	0.0036
521.082	0.0038
521.378	0.0032
521.675	0.0031
521.971	0.0025
522.268	0.0038
522.564	0.0032
522.861	0.0037
523.157	0.0039
523.453	0.0039
523.749	0.0033
524.045	0.0033
524.341	0.0029
524.637	0.0023
524.933	0.0022
525.229	0.0021
525.524	0.002
525.82	0.0015
526.115	0.0023
526.411	0.0017
526.706	0.0013
527.002	0.0021
527.297	0.0012
527.592	0.0029
527.887	0.0033
528.182	0.0026
528.477	0.0032
528.772	0.0028
529.067	0.0024
529.362	0.0021
529.657	0.0018
529.951	0.002
530.246	0.0003
530.54	0.0021
530.835	0.0019
531.129	0.0012
531.423	0.0011
531.718	0.0016
532.012	0.0017
532.306	0.0012
532.6	0.0008
532.894	0.0012
533.188	0.0017
533.482	0.001
533.775	0.0008
534.069	-0
534.363	-0
534.656	-0.0003
534.95	0.0012
535.243	0.0002
535.536	0.0007
535.83	-0.0001
536.123	0.0007
536.416	0.0008
536.709	0.0007
537.002	-0.0001
537.295	0.0004
537.588	-0.0002
537.881	0.0002
538.173	0.0003
538.466	0.0006
538.759	-0.0002
539.051	0.0008
539.344	-0.0006
539.636	0
539.928	0.0013
540.22	0.0005
540.513	0.0003
540.805	0
541.097	0.0001
541.389	-0.0005
541.681	0.0003
541.972	0.0014
542.264	0.002
542.556	0.0009
542.847	0.0018
543.139	0.0016
543.431	-0
543.722	0.0013
544.013	0.0013
544.305	-0.0001
544.596	-0.0001
544.887	0.002
545.178	0.0013
545.469	-0.0001
545.76	-0.0001
546.051	0.0016
546.342	0.0008
546.632	-0.001
546.923	-0.0001
547.214	-0.0006
547.504	-0.0007
547.795	-0.0002
548.085	-0.0016
548.375	-0.0005
548.666	-0.0008
548.956	-0.0002
549.246	-0.0002
549.536	0.0005
549.826	-0.0006
550.116	-0.0011
550.406	-0.0002
550.695	-0.002
550.985	0.0008
551.275	-0.0004
551.564	-0.0005
551.854	0.0007
552.143	-0.0002
552.433	-0.0013
552.722	-0.0017
553.011	-0.0003
553.3	0.0009
553.589	0.0009
553.879	0
554.167	0.0004
554.456	0.0009
554.745	0.0002
555.034	-0.0008
555.323	0.0002
555.611	-0.0003
555.9	-0.0007
556.188	-0.0005
556.477	-0.0001
556.765	-0.0022
557.053	-0.0019
557.342	-0.0008
557.63	-0.0003
557.918	-0.0009
558.206	0.0001
558.494	0
558.782	-0
559.069	0.0005
559.357	0.0013
559.645	-0.0007
559.932	0.0001
560.22	-0.0015
560.507	-0.0012
560.795	-0.0005
561.082	-0.0019
561.37	-0.0004
561.657	-0.0018
561.944	-0.0016
562.231	-0.0008
562.518	0.0001
562.805	0.0001
563.092	0.0001
563.379	0.0011
563.665	0.001
563.952	-0.0001
564.239	0.0006
564.525	0.0006
564.811	0.001
565.098	-0.0002
565.384	-0.002
565.67	0.0001
565.957	0.0007
566.243	0.0015
566.529	0.0001
566.815	0.0009
567.101	0.0014
567.387	0.0005
567.672	-0.0001
567.958	0.0007
568.244	0.0005
568.529	0.0009
568.815	0.0007
569.1	-0.0007
569.386	-0.0007
569.671	0.0004
569.956	0.0002
570.242	-0.0002
570.527	-0.0012
570.812	-0.0001
571.097	0.0001
571.382	-0.0007
571.666	0.0005
571.951	-0.0002
572.236	0.0005
572.521	0.0006
572.805	-0.0005
573.09	-0
573.374	-0.0007
573.659	-0.0004
573.943	-0.0003
574.227	-0.0004
574.511	-0.001
574.795	-0.0003
575.079	0.0004
575.363	-0.0006
575.647	0.0002
575.931	0.0002
576.215	-0.0015
576.499	-0.0015
576.782	-0.001
577.066	-0.0009
577.349	0.0002
577.633	-0.0012
577.916	-0.0003
578.2	-0.0007
578.483	-0.0001
578.766	-0
579.049	-0.0005
579.332	0.0001
579.615	0.0002
579.898	-0.0002
580.181	0.0006
580.464	0.0004
580.746	0.0003
581.029	-0.0008
581.312	-0.0002
581.594	-0.0008
581.877	-0.0001
582.159	-0.0002
582.441	-0.0007
582.724	-0.0001
583.006	0.0002
583.288	0.0009
583.57	-0.0002
583.852	0.0004
584.134	0.0007
584.416	0.0001
584.697	0.0004
584.979	-0.0009
585.261	-0.0007
585.542	-0.0016
585.824	-0
586.105	-0.0009
586.387	-0.0004
586.668	0.0002
586.949	0.0002
587.231	0.0002
587.512	-0
587.793	0.0005
588.074	-0.0002
588.355	0.0002
588.636	-0.001
588.916	-0.0005
589.197	-0.0005
589.478	-0.0007
589.758	-0.0003
590.039	0.0004
590.319	0.0004
590.6	0.0003
590.88	0.0007
591.16	0.0007
591.441	0.0009
591.721	-0.0001
592.001	-0.0005
592.281	-0.0001
592.561	-0.0003
592.841	-0.0006
593.12	-0.0013
593.4	-0.0005
593.68	-0.0018
593.959	-0.001
594.239	-0.0015
594.518	-0.0011
594.798	-0.0006
595.077	-0.001
