Data from 03 0.5 mM K2Cr2O7 0.3 mM BQDS 1 M H2SO4 5 min_Absorbance_0189.txt Node
Date: Tue Dec 14 09:24:45 EST 2021
User: kwabilab-user
Spectrometer: HDX00518
Trigger mode: 0
Integration Time (sec): 5.000000E-2
Scans to average: 50
Nonlinearity correction enabled: false
Boxcar width: 0
Storing dark spectrum: false
XAxis mode: Wavelengths
Number of Pixels in Spectrum: 2068
>>>>>Begin Spectral Data<<<<<
195.27	-0.0357
195.642	0.0499
196.014	0.0095
196.386	0.099
196.758	-0.008
197.129	-0.0274
197.501	-0.0369
197.872	-0.0108
198.244	-0.0029
198.615	0.0326
198.986	0.0181
199.357	0.0142
199.728	0.004
200.099	0.0324
200.47	0.0064
200.841	0.0157
201.212	0.0348
201.582	0.0304
201.953	0.0276
202.323	0.0372
202.694	0.0131
203.064	0.0008
203.434	0.0296
203.804	-0.0068
204.174	0.0351
204.544	0.0277
204.914	0.0088
205.284	0.0251
205.653	-0.0027
206.023	0.0092
206.393	-0.0194
206.762	0.0319
207.131	0.0209
207.501	-0.0069
207.87	0.0253
208.239	0.0418
208.608	0.0083
208.977	0.0113
209.346	-0.0062
209.715	0.0029
210.083	-0.0122
210.452	0.0068
210.82	0.004
211.189	0.0069
211.557	0.0416
211.925	-0.0143
212.294	-0.0149
212.662	0.0026
213.03	0.0063
213.398	0.04
213.766	0.0321
214.133	0.0222
214.501	0.0183
214.869	0.0198
215.236	0.0038
215.604	0.0048
215.971	0.0078
216.338	0.0402
216.705	0.0469
217.072	0.0484
217.439	0.024
217.806	0.0407
218.173	0.0352
218.54	0.0517
218.907	0.0524
219.273	0.0504
219.64	0.0638
220.006	0.055
220.373	0.0767
220.739	0.1045
221.105	0.1096
221.471	0.1111
221.837	0.1355
222.203	0.1381
222.569	0.1695
222.935	0.1955
223.3	0.2018
223.666	0.2586
224.031	0.2414
224.397	0.2533
224.762	0.3004
225.127	0.3045
225.493	0.3256
225.858	0.3534
226.223	0.3788
226.588	0.4023
226.952	0.4219
227.317	0.463
227.682	0.4548
228.046	0.4703
228.411	0.4809
228.775	0.5135
229.14	0.5165
229.504	0.556
229.868	0.5505
230.232	0.5613
230.596	0.5614
230.96	0.5829
231.324	0.5896
231.688	0.6037
232.052	0.6073
232.415	0.6067
232.779	0.6222
233.142	0.6195
233.505	0.6312
233.869	0.626
234.232	0.6297
234.595	0.6313
234.958	0.6547
235.321	0.6406
235.684	0.6362
236.047	0.6419
236.409	0.6218
236.772	0.6352
237.134	0.6374
237.497	0.6334
237.859	0.6581
238.222	0.6381
238.584	0.6394
238.946	0.638
239.308	0.6345
239.67	0.6377
240.032	0.6234
240.393	0.633
240.755	0.6192
241.117	0.6258
241.478	0.619
241.84	0.6226
242.201	0.6152
242.562	0.6138
242.924	0.606
243.285	0.6038
243.646	0.6047
244.007	0.6078
244.368	0.6016
244.728	0.5985
245.089	0.6011
245.45	0.6043
245.81	0.5953
246.171	0.5964
246.531	0.596
246.891	0.5933
247.252	0.5838
247.612	0.5939
247.972	0.5879
248.332	0.5808
248.692	0.5861
249.051	0.585
249.411	0.5908
249.771	0.5774
250.13	0.5743
250.49	0.5826
250.849	0.5758
251.208	0.5786
251.568	0.5778
251.927	0.577
252.286	0.5804
252.645	0.5742
253.004	0.5743
253.363	0.57
253.721	0.5728
254.08	0.5713
254.439	0.5762
254.797	0.5722
255.155	0.5628
255.514	0.5683
255.872	0.5713
256.23	0.5656
256.588	0.5672
256.946	0.5673
257.304	0.5681
257.662	0.5697
258.02	0.5639
258.377	0.5635
258.735	0.5563
259.093	0.5504
259.45	0.556
259.807	0.5534
260.165	0.5548
260.522	0.5489
260.879	0.5448
261.236	0.5455
261.593	0.5453
261.95	0.5402
262.306	0.5443
262.663	0.5362
263.02	0.5376
263.376	0.5359
263.733	0.5351
264.089	0.5252
264.445	0.5247
264.802	0.5223
265.158	0.5223
265.514	0.5229
265.87	0.5219
266.226	0.5157
266.581	0.5075
266.937	0.5096
267.293	0.5037
267.648	0.501
268.004	0.5
268.359	0.4965
268.714	0.4953
269.07	0.4982
269.425	0.4922
269.78	0.4868
270.135	0.4855
270.49	0.482
270.844	0.4809
271.199	0.4761
271.554	0.4773
271.908	0.4697
272.263	0.475
272.617	0.4642
272.972	0.4632
273.326	0.4578
273.68	0.4542
274.034	0.4544
274.388	0.4494
274.742	0.4467
275.096	0.445
275.45	0.4401
275.803	0.4365
276.157	0.4388
276.51	0.43
276.864	0.4252
277.217	0.4233
277.571	0.4189
277.924	0.4184
278.277	0.4116
278.63	0.4093
278.983	0.4041
279.336	0.4019
279.688	0.398
280.041	0.3923
280.394	0.3894
280.746	0.3877
281.099	0.3825
281.451	0.3771
281.803	0.3721
282.156	0.3695
282.508	0.3664
282.86	0.3623
283.212	0.3583
283.564	0.3526
283.916	0.3516
284.267	0.3448
284.619	0.3429
284.971	0.3378
285.322	0.3359
285.673	0.3317
286.025	0.3258
286.376	0.3235
286.727	0.3214
287.078	0.3177
287.429	0.3132
287.78	0.3089
288.131	0.3066
288.482	0.2995
288.833	0.2974
289.183	0.2908
289.534	0.2886
289.884	0.2858
290.235	0.2811
290.585	0.2778
290.935	0.274
291.285	0.2691
291.635	0.2664
291.985	0.2621
292.335	0.2591
292.685	0.2565
293.035	0.2541
293.384	0.2479
293.734	0.2446
294.083	0.241
294.433	0.2373
294.782	0.2344
295.131	0.2295
295.48	0.2258
295.829	0.2241
296.179	0.2196
296.527	0.2169
296.876	0.2142
297.225	0.2101
297.574	0.2068
297.922	0.2049
298.271	0.2017
298.619	0.198
298.968	0.1942
299.316	0.1914
299.664	0.1897
300.012	0.1883
300.36	0.1831
300.708	0.1822
301.056	0.18
301.404	0.1758
301.752	0.1742
302.099	0.1719
302.447	0.17
302.794	0.1678
303.142	0.1654
303.489	0.1626
303.836	0.1616
304.183	0.159
304.531	0.1569
304.878	0.1561
305.224	0.1547
305.571	0.1524
305.918	0.1505
306.265	0.1504
306.611	0.1484
306.958	0.1475
307.304	0.1449
307.651	0.1446
307.997	0.1439
308.343	0.1426
308.689	0.1415
309.035	0.1406
309.381	0.14
309.727	0.1391
310.073	0.1387
310.419	0.1383
310.764	0.1374
311.11	0.1372
311.455	0.1377
311.801	0.1367
312.146	0.1364
312.491	0.1363
312.837	0.1349
313.182	0.1356
313.527	0.1357
313.872	0.135
314.216	0.1361
314.561	0.1357
314.906	0.1358
315.251	0.136
315.595	0.1367
315.94	0.1371
316.284	0.1376
316.628	0.1382
316.972	0.1394
317.317	0.1396
317.661	0.1401
318.005	0.1407
318.348	0.1416
318.692	0.142
319.036	0.1422
319.38	0.1431
319.723	0.1442
320.067	0.1456
320.41	0.1469
320.754	0.1485
321.097	0.1484
321.44	0.1491
321.783	0.1508
322.126	0.1527
322.469	0.1534
322.812	0.1545
323.155	0.1559
323.498	0.1578
323.84	0.1586
324.183	0.1608
324.525	0.162
324.868	0.1639
325.21	0.1641
325.552	0.1667
325.894	0.1666
326.236	0.1688
326.578	0.17
326.92	0.1721
327.262	0.1735
327.604	0.1753
327.946	0.177
328.287	0.1781
328.629	0.1805
328.97	0.1821
329.312	0.1825
329.653	0.1849
329.994	0.1865
330.335	0.1881
330.676	0.1907
331.017	0.1916
331.358	0.1934
331.699	0.1955
332.04	0.197
332.38	0.1986
332.721	0.2002
333.061	0.2021
333.402	0.204
333.742	0.2053
334.083	0.2074
334.423	0.2082
334.763	0.2099
335.103	0.2115
335.443	0.2122
335.783	0.2144
336.123	0.2148
336.462	0.217
336.802	0.2189
337.141	0.2201
337.481	0.2208
337.82	0.2223
338.16	0.2232
338.499	0.2258
338.838	0.2269
339.177	0.2279
339.516	0.2297
339.855	0.2311
340.194	0.2316
340.533	0.2328
340.872	0.2338
341.21	0.2357
341.549	0.2363
341.887	0.2375
342.226	0.2376
342.564	0.2392
342.902	0.2396
343.24	0.2398
343.578	0.241
343.916	0.2413
344.254	0.2419
344.592	0.2417
344.93	0.2427
345.268	0.243
345.605	0.2426
345.943	0.2442
346.28	0.244
346.618	0.2443
346.955	0.2442
347.292	0.2445
347.629	0.2452
347.966	0.2452
348.303	0.2459
348.64	0.246
348.977	0.2463
349.314	0.2466
349.65	0.2466
349.987	0.2472
350.324	0.246
350.66	0.2461
350.996	0.245
351.333	0.2455
351.669	0.245
352.005	0.2447
352.341	0.2434
352.677	0.2423
353.013	0.2415
353.349	0.2411
353.685	0.24
354.02	0.2389
354.356	0.2371
354.691	0.2363
355.027	0.2352
355.362	0.2355
355.697	0.2345
356.033	0.2345
356.368	0.2331
356.703	0.2312
357.038	0.2313
357.373	0.2303
357.707	0.2287
358.042	0.2274
358.377	0.2283
358.711	0.226
359.046	0.2252
359.38	0.2235
359.715	0.2237
360.049	0.2224
360.383	0.2213
360.717	0.2199
361.051	0.2186
361.385	0.2163
361.719	0.2142
362.053	0.2134
362.387	0.2121
362.72	0.2101
363.054	0.2082
363.387	0.2068
363.721	0.2055
364.054	0.2027
364.387	0.2014
364.721	0.1991
365.054	0.1973
365.387	0.196
365.72	0.1944
366.053	0.1931
366.385	0.1907
366.718	0.1896
367.051	0.1885
367.383	0.1873
367.716	0.185
368.048	0.1851
368.381	0.1824
368.713	0.1812
369.045	0.1806
369.377	0.1788
369.709	0.1772
370.041	0.1771
370.373	0.1751
370.705	0.1732
371.037	0.1717
371.368	0.1695
371.7	0.1693
372.031	0.1666
372.363	0.1648
372.694	0.1627
373.025	0.1607
373.356	0.1579
373.688	0.1566
374.019	0.1543
374.35	0.1521
374.68	0.1505
375.011	0.1482
375.342	0.1463
375.673	0.1449
376.003	0.1429
376.334	0.1412
376.664	0.1393
376.995	0.1376
377.325	0.1355
377.655	0.1351
377.985	0.133
378.315	0.1308
378.645	0.1301
378.975	0.1289
379.305	0.1276
379.635	0.1262
379.964	0.1253
380.294	0.1236
380.623	0.1231
380.953	0.1208
381.282	0.1199
381.611	0.1179
381.941	0.1167
382.27	0.1155
382.599	0.114
382.928	0.1124
383.257	0.1116
383.585	0.1097
383.914	0.1083
384.243	0.106
384.571	0.1041
384.9	0.1019
385.228	0.1014
385.557	0.099
385.885	0.0977
386.213	0.0961
386.541	0.0948
386.869	0.0929
387.197	0.0913
387.525	0.0903
387.853	0.0881
388.181	0.0867
388.508	0.0849
388.836	0.084
389.164	0.0824
389.491	0.082
389.818	0.0804
390.146	0.0795
390.473	0.0782
390.8	0.0768
391.127	0.0746
391.454	0.0741
391.781	0.0728
392.108	0.0722
392.435	0.071
392.761	0.0697
393.088	0.0691
393.415	0.0682
393.741	0.0687
394.067	0.0666
394.394	0.0662
394.72	0.0651
395.046	0.064
395.372	0.064
395.698	0.0627
396.024	0.0621
396.35	0.0608
396.676	0.0597
397.001	0.0591
397.327	0.0578
397.653	0.0568
397.978	0.0554
398.303	0.0548
398.629	0.0532
398.954	0.053
399.279	0.0526
399.604	0.0519
399.929	0.0515
400.254	0.0509
400.579	0.0503
400.904	0.0493
401.229	0.0487
401.553	0.0481
401.878	0.0479
402.202	0.0466
402.527	0.0467
402.851	0.0464
403.175	0.0453
403.5	0.0445
403.824	0.0447
404.148	0.0446
404.472	0.0426
404.796	0.0428
405.119	0.0426
405.443	0.0426
405.767	0.0413
406.09	0.0419
406.414	0.0413
406.737	0.041
407.061	0.0411
407.384	0.0411
407.707	0.0401
408.03	0.0399
408.353	0.0411
408.676	0.0403
408.999	0.0398
409.322	0.0402
409.645	0.0395
409.968	0.0399
410.29	0.0391
410.613	0.0396
410.935	0.0395
411.258	0.039
411.58	0.0391
411.902	0.0392
412.224	0.0383
412.546	0.0383
412.868	0.0384
413.19	0.0382
413.512	0.0385
413.834	0.0374
414.156	0.0381
414.477	0.0388
414.799	0.0376
415.121	0.0389
415.442	0.0386
415.763	0.0377
416.085	0.038
416.406	0.0384
416.727	0.0386
417.048	0.0383
417.369	0.0379
417.69	0.0378
418.011	0.0373
418.331	0.0382
418.652	0.038
418.973	0.0378
419.293	0.0381
419.614	0.0385
419.934	0.0391
420.254	0.0386
420.574	0.0384
420.895	0.0384
421.215	0.0383
421.535	0.0383
421.855	0.0378
422.174	0.038
422.494	0.0375
422.814	0.0376
423.134	0.0378
423.453	0.0387
423.773	0.0383
424.092	0.0383
424.411	0.0375
424.731	0.0387
425.05	0.0378
425.369	0.0381
425.688	0.0384
426.007	0.038
426.326	0.0378
426.644	0.0385
426.963	0.0388
427.282	0.0385
427.6	0.0386
427.919	0.0383
428.237	0.0388
428.556	0.0383
428.874	0.0388
429.192	0.039
429.51	0.039
429.828	0.0387
430.146	0.0387
430.464	0.0382
430.782	0.0383
431.1	0.0389
431.418	0.038
431.735	0.0379
432.053	0.0391
432.37	0.0388
432.688	0.0385
433.005	0.039
433.322	0.0389
433.639	0.0388
433.957	0.0391
434.274	0.039
434.591	0.039
434.907	0.0385
435.224	0.0387
435.541	0.0383
435.858	0.0395
436.174	0.0395
436.491	0.0382
436.807	0.0373
437.124	0.0378
437.44	0.0391
437.756	0.0382
438.072	0.0384
438.388	0.0392
438.704	0.0384
439.02	0.0383
439.336	0.0381
439.652	0.0382
439.968	0.0375
440.283	0.0372
440.599	0.0371
440.914	0.0384
441.23	0.0386
441.545	0.0378
441.86	0.0376
442.175	0.0376
442.491	0.038
442.806	0.0379
443.121	0.0373
443.435	0.0372
443.75	0.0375
444.065	0.0373
444.38	0.0372
444.694	0.0369
445.009	0.0375
445.323	0.0371
445.638	0.0357
445.952	0.0371
446.266	0.0377
446.58	0.0373
446.894	0.0371
447.208	0.0371
447.522	0.0362
447.836	0.0363
448.15	0.0361
448.464	0.0365
448.777	0.0366
449.091	0.036
449.404	0.0358
449.718	0.0354
450.031	0.0358
450.345	0.0358
450.658	0.0357
450.971	0.0355
451.284	0.0356
451.597	0.0343
451.91	0.0352
452.223	0.0352
452.535	0.0342
452.848	0.0354
453.161	0.0343
453.473	0.0344
453.786	0.0338
454.098	0.0338
454.411	0.035
454.723	0.0335
455.035	0.0333
455.347	0.0325
455.659	0.0332
455.971	0.0343
456.283	0.0332
456.595	0.0323
456.907	0.033
457.218	0.0325
457.53	0.0318
457.841	0.0319
458.153	0.0326
458.464	0.0322
458.776	0.0327
459.087	0.0315
459.398	0.0322
459.709	0.0317
460.02	0.0317
460.331	0.0307
460.642	0.0314
460.953	0.0303
461.263	0.0302
461.574	0.0298
461.885	0.0299
462.195	0.03
462.506	0.0302
462.816	0.0297
463.126	0.03
463.437	0.0296
463.747	0.0295
464.057	0.0283
464.367	0.0286
464.677	0.0285
464.987	0.0276
465.296	0.0286
465.606	0.0274
465.916	0.0268
466.225	0.0275
466.535	0.0277
466.844	0.0274
467.154	0.028
467.463	0.0266
467.772	0.0275
468.081	0.0268
468.39	0.0263
468.699	0.026
469.008	0.0258
469.317	0.0254
469.626	0.0252
469.935	0.025
470.243	0.0244
470.552	0.0251
470.86	0.0251
471.169	0.0245
471.477	0.0239
471.785	0.0248
472.093	0.0243
472.402	0.0236
472.71	0.0238
473.018	0.0232
473.326	0.0224
473.633	0.0232
473.941	0.022
474.249	0.0224
474.556	0.0235
474.864	0.0228
475.171	0.0216
475.479	0.0216
475.786	0.0216
476.094	0.0212
476.401	0.0208
476.708	0.021
477.015	0.0213
477.322	0.0211
477.629	0.0209
477.936	0.0204
478.242	0.0197
478.549	0.0194
478.856	0.0206
479.162	0.0197
479.469	0.0192
479.775	0.0197
480.081	0.0189
480.388	0.0186
480.694	0.0183
481	0.0188
481.306	0.0184
481.612	0.0178
481.918	0.0181
482.224	0.0173
482.53	0.0172
482.835	0.0177
483.141	0.0169
483.446	0.017
483.752	0.017
484.057	0.0167
484.363	0.0161
484.668	0.0156
484.973	0.0155
485.278	0.016
485.583	0.0149
485.888	0.0154
486.193	0.0125
486.498	0.0142
486.803	0.0145
487.107	0.0145
487.412	0.0136
487.717	0.0133
488.021	0.0139
488.325	0.0149
488.63	0.014
488.934	0.015
489.238	0.0138
489.542	0.0129
489.846	0.0134
490.15	0.0134
490.454	0.0123
490.758	0.0125
491.062	0.0124
491.366	0.0115
491.669	0.0115
491.973	0.0124
492.276	0.0112
492.58	0.011
492.883	0.0114
493.186	0.0116
493.489	0.0104
493.792	0.01
494.096	0.01
494.399	0.0093
494.701	0.0102
495.004	0.0092
495.307	0.0097
495.61	0.0088
495.912	0.0099
496.215	0.0077
496.517	0.0088
496.82	0.0093
497.122	0.0077
497.424	0.0098
497.727	0.0082
498.029	0.0075
498.331	0.009
498.633	0.0082
498.935	0.0083
499.237	0.0072
499.538	0.0072
499.84	0.0071
500.142	0.007
500.443	0.0066
500.745	0.0066
501.046	0.0059
501.348	0.0059
501.649	0.0055
501.95	0.0055
502.251	0.006
502.552	0.0058
502.853	0.005
503.154	0.0056
503.455	0.0059
503.756	0.0054
504.057	0.0059
504.357	0.0049
504.658	0.0047
504.958	0.0049
505.259	0.0049
505.559	0.0038
505.859	0.0046
506.16	0.005
506.46	0.0046
506.76	0.0047
507.06	0.0042
507.36	0.0038
507.66	0.0042
507.96	0.004
508.259	0.0042
508.559	0.0053
508.859	0.004
509.158	0.0035
509.457	0.0035
509.757	0.0032
510.056	0.0041
510.355	0.0028
510.655	0.0028
510.954	0.003
511.253	0.0027
511.552	0.0028
511.851	0.003
512.149	0.0016
512.448	0.0026
512.747	0.0023
513.045	0.0015
513.344	0.0015
513.642	0.0021
513.941	0.0016
514.239	0.0015
514.537	0.0007
514.836	0.0017
515.134	0.0006
515.432	0.0026
515.73	0.0014
516.028	0.0021
516.326	0.0024
516.623	0.0015
516.921	-0.0008
517.219	0.0018
517.516	0.0013
517.814	0.0007
518.111	0.0008
518.409	0
518.706	0.0009
519.003	0.001
519.3	0.0003
519.597	0.0003
519.894	0.0016
520.191	0.0003
520.488	0.0018
520.785	-0.0004
521.082	0.0009
521.378	0.0002
521.675	-0.0009
521.971	-0.0007
522.268	0.0003
522.564	0.0007
522.861	0.0014
523.157	0.0002
523.453	0.0006
523.749	0.0011
524.045	0.0005
524.341	0.0012
524.637	0.0002
524.933	-0.0003
525.229	-0
525.524	-0.0009
525.82	-0.0001
526.115	-0.0002
526.411	-0.0004
526.706	-0.0002
527.002	0.0003
527.297	-0.0006
527.592	0.0004
527.887	0.0009
528.182	-0.0005
528.477	0.0006
528.772	-0.0008
529.067	-0.0006
529.362	-0
529.657	-0.0003
529.951	0.0008
530.246	-0.001
530.54	0.0005
530.835	-0.0006
531.129	-0.0006
531.423	-0.0003
531.718	-0.0004
532.012	-0.0007
532.306	-0.0008
532.6	-0.0013
532.894	-0.0008
533.188	-0.0004
533.482	-0.0003
533.775	-0.001
534.069	-0.001
534.363	-0.002
534.656	-0.0024
534.95	-0.0008
535.243	-0.001
535.536	-0.0007
535.83	-0.0017
536.123	-0.0014
536.416	-0.0007
536.709	-0.001
537.002	-0.0016
537.295	-0.0014
537.588	-0.0017
537.881	-0.0019
538.173	-0.0012
538.466	-0.0019
538.759	-0.001
539.051	-0.0017
539.344	-0.0013
539.636	-0.002
539.928	-0.0006
540.22	-0.0005
540.513	-0.001
540.805	-0.0001
541.097	-0.0021
541.389	-0.0017
541.681	-0.001
541.972	0
542.264	0.0006
542.556	0.0002
542.847	-0.0001
543.139	0.0004
543.431	-0.0006
543.722	-0.0003
544.013	0
544.305	-0.0006
544.596	-0.002
544.887	-0.0001
545.178	-0.0012
545.469	-0.0013
545.76	-0.0011
546.051	0.001
546.342	-0.001
546.632	-0.0014
546.923	-0.0013
547.214	-0.0007
547.504	-0.0017
547.795	-0.0014
548.085	-0.0027
548.375	-0.0017
548.666	-0.0013
548.956	-0.0008
549.246	-0.0007
549.536	-0.001
549.826	-0.0006
550.116	-0.001
550.406	-0.001
550.695	-0.0027
550.985	-0.001
551.275	0.0001
551.564	-0.002
551.854	0.0001
552.143	-0.0016
552.433	-0.0019
552.722	-0.0026
553.011	-0.0006
553.3	-0.0003
553.589	0.0002
553.879	-0.0004
554.167	-0.0015
554.456	0.0001
554.745	-0.0007
555.034	-0.0014
555.323	0.0004
555.611	-0.0005
555.9	-0.0003
556.188	-0.0021
556.477	-0.0011
556.765	-0.0034
557.053	-0.0013
557.342	0
557.63	-0.0007
557.918	0.0004
558.206	0.0003
558.494	0.0005
558.782	0.0006
559.069	0.0002
559.357	0.0021
559.645	-0.0001
559.932	0.0005
560.22	-0.0001
560.507	-0.0017
560.795	-0.0017
561.082	-0.0019
561.37	-0.0011
561.657	-0.0005
561.944	-0.0012
562.231	-0.0003
562.518	0.0001
562.805	-0.0002
563.092	-0.0005
563.379	-0.0001
563.665	-0.0004
563.952	-0.0001
564.239	0.0007
564.525	0.0005
564.811	0.0009
565.098	0.0003
565.384	-0.0001
565.67	0.0012
565.957	0.0021
566.243	0.0007
566.529	0.0004
566.815	0.0008
567.101	0.0016
567.387	0.0012
567.672	0.0003
567.958	0.0012
568.244	0.0005
568.529	0.0001
568.815	-0.0006
569.1	-0.0008
569.386	-0.0016
569.671	0
569.956	-0.0001
570.242	-0.0003
570.527	-0.001
570.812	-0.0001
571.097	0
571.382	-0.0009
571.666	0.0002
571.951	-0.0013
572.236	-0.0012
572.521	0.0006
572.805	0
573.09	-0
573.374	-0.002
573.659	-0.0007
573.943	-0.001
574.227	-0.0015
574.511	-0.0023
574.795	-0.0008
575.079	-0.0006
575.363	-0.0013
575.647	-0.0013
575.931	-0.0002
576.215	-0.0011
576.499	-0.0016
576.782	-0.0013
577.066	-0.0008
577.349	0.0002
577.633	-0.0011
577.916	-0.002
578.2	-0.0013
578.483	-0.0008
578.766	-0.0003
579.049	0
579.332	0.0008
579.615	-0.0002
579.898	-0.0006
580.181	0.0005
580.464	0.001
580.746	0.0001
581.029	-0.0006
581.312	-0.001
581.594	-0.0027
581.877	-0.0021
582.159	-0.0005
582.441	-0.0017
582.724	-0.0013
583.006	-0.0003
583.288	0
583.57	0.0001
583.852	0.0003
584.134	0.0001
584.416	-0.0003
584.697	-0.0011
584.979	-0.0022
585.261	-0.0025
585.542	-0.0016
585.824	-0.0019
586.105	-0.0017
586.387	-0.001
586.668	-0.001
586.949	-0.0008
587.231	0.0003
587.512	-0.001
587.793	-0.0002
588.074	-0.0015
588.355	-0.0004
588.636	-0.0018
588.916	-0.0018
589.197	-0.0003
589.478	-0.0002
589.758	-0.0003
590.039	-0.0003
590.319	0.0005
590.6	0.0009
590.88	-0.0001
591.16	0.0013
591.441	0.0016
591.721	-0.0002
592.001	-0.0006
592.281	-0.001
592.561	0.0003
592.841	-0.0015
593.12	-0.0028
593.4	-0.0015
593.68	-0.0024
593.959	-0.0017
594.239	-0.0015
594.518	-0.0002
