Data from 03 0.5 mM K2Cr2O7 0.3 mM BQDS 1 M H2SO4 5 min_Absorbance_0041.txt Node
Date: Mon Dec 13 21:04:45 EST 2021
User: kwabilab-user
Spectrometer: HDX00518
Trigger mode: 0
Integration Time (sec): 5.000000E-2
Scans to average: 50
Nonlinearity correction enabled: false
Boxcar width: 0
Storing dark spectrum: false
XAxis mode: Wavelengths
Number of Pixels in Spectrum: 2068
>>>>>Begin Spectral Data<<<<<
195.27	0.0606
195.642	0.6096
196.014	0.0412
196.386	0.4626
196.758	0.0235
197.129	-0.0067
197.501	-0.0071
197.872	0.0195
198.244	0.0565
198.615	0.0563
198.986	0.0472
199.357	0.0738
199.728	0.0537
200.099	0.0687
200.47	0.0399
200.841	0.0669
201.212	0.0613
201.582	0.0632
201.953	0.0518
202.323	0.0738
202.694	0.0346
203.064	0.0463
203.434	0.0606
203.804	0.0665
204.174	0.0586
204.544	0.0527
204.914	0.0483
205.284	0.0523
205.653	0.0331
206.023	0.061
206.393	0.0237
206.762	0.0597
207.131	0.0476
207.501	0.0461
207.87	0.0691
208.239	0.0493
208.608	0.0546
208.977	0.0428
209.346	0.0582
209.715	0.0636
210.083	0.0448
210.452	0.0443
210.82	0.0468
211.189	0.0433
211.557	0.0666
211.925	0.0376
212.294	0.0515
212.662	0.0603
213.03	0.0334
213.398	0.0658
213.766	0.0844
214.133	0.0519
214.501	0.0748
214.869	0.0663
215.236	0.0655
215.604	0.0782
215.971	0.0815
216.338	0.0644
216.705	0.0687
217.072	0.0967
217.439	0.0548
217.806	0.086
218.173	0.0684
218.54	0.0811
218.907	0.0952
219.273	0.1045
219.64	0.1089
220.006	0.1199
220.373	0.14
220.739	0.125
221.105	0.1537
221.471	0.1659
221.837	0.1888
222.203	0.1955
222.569	0.2194
222.935	0.2625
223.3	0.2506
223.666	0.2844
224.031	0.3124
224.397	0.3072
224.762	0.3479
225.127	0.3823
225.493	0.3964
225.858	0.4061
226.223	0.4509
226.588	0.4499
226.952	0.4755
227.317	0.4895
227.682	0.5105
228.046	0.5236
228.411	0.5544
228.775	0.5604
229.14	0.5671
229.504	0.5871
229.868	0.6144
230.232	0.618
230.596	0.6298
230.96	0.6584
231.324	0.6537
231.688	0.674
232.052	0.6895
232.415	0.6834
232.779	0.7086
233.142	0.703
233.505	0.7149
233.869	0.7151
234.232	0.7188
234.595	0.7157
234.958	0.7176
235.321	0.7156
235.684	0.729
236.047	0.7319
236.409	0.7213
236.772	0.7337
237.134	0.7367
237.497	0.7294
237.859	0.7401
238.222	0.7387
238.584	0.7236
238.946	0.7217
239.308	0.7236
239.67	0.7253
240.032	0.7274
240.393	0.738
240.755	0.7244
241.117	0.7275
241.478	0.7247
241.84	0.7268
242.201	0.7122
242.562	0.7113
242.924	0.7035
243.285	0.7117
243.646	0.7176
244.007	0.7097
244.368	0.7059
244.728	0.7047
245.089	0.7083
245.45	0.7077
245.81	0.7009
246.171	0.7133
246.531	0.7001
246.891	0.7041
247.252	0.6993
247.612	0.7033
247.972	0.7084
248.332	0.7066
248.692	0.7007
249.051	0.7027
249.411	0.7074
249.771	0.6983
250.13	0.7035
250.49	0.6979
250.849	0.7045
251.208	0.6968
251.568	0.6955
251.927	0.6954
252.286	0.6999
252.645	0.7058
253.004	0.7034
253.363	0.6995
253.721	0.7079
254.08	0.6991
254.439	0.6886
254.797	0.6937
255.155	0.6928
255.514	0.6953
255.872	0.7016
256.23	0.688
256.588	0.7026
256.946	0.6932
257.304	0.7041
257.662	0.6995
258.02	0.7009
258.377	0.6941
258.735	0.6869
259.093	0.6812
259.45	0.6932
259.807	0.6901
260.165	0.6817
260.522	0.6881
260.879	0.6815
261.236	0.682
261.593	0.6797
261.95	0.6759
262.306	0.6716
262.663	0.6686
263.02	0.6707
263.376	0.6734
263.733	0.6678
264.089	0.6691
264.445	0.6661
264.802	0.6665
265.158	0.6587
265.514	0.6598
265.87	0.6548
266.226	0.6544
266.581	0.6544
266.937	0.6475
267.293	0.6447
267.648	0.6393
268.004	0.6419
268.359	0.643
268.714	0.633
269.07	0.6345
269.425	0.6271
269.78	0.6207
270.135	0.6251
270.49	0.6228
270.844	0.6183
271.199	0.6097
271.554	0.6107
271.908	0.6071
272.263	0.6088
272.617	0.6054
272.972	0.5979
273.326	0.5938
273.68	0.5894
274.034	0.5831
274.388	0.5847
274.742	0.5829
275.096	0.5777
275.45	0.5736
275.803	0.5692
276.157	0.5664
276.51	0.5542
276.864	0.5594
277.217	0.5542
277.571	0.5524
277.924	0.5444
278.277	0.5405
278.63	0.5331
278.983	0.5279
279.336	0.5247
279.688	0.5224
280.041	0.5118
280.394	0.5114
280.746	0.5092
281.099	0.5046
281.451	0.4996
281.803	0.4905
282.156	0.4848
282.508	0.4853
282.86	0.4779
283.212	0.4724
283.564	0.4673
283.916	0.4661
284.267	0.4592
284.619	0.4515
284.971	0.4519
285.322	0.4454
285.673	0.4372
286.025	0.4349
286.376	0.4297
286.727	0.4233
287.078	0.4203
287.429	0.4168
287.78	0.4113
288.131	0.4051
288.482	0.4008
288.833	0.3948
289.183	0.3896
289.534	0.3865
289.884	0.3811
290.235	0.377
290.585	0.3714
290.935	0.3679
291.285	0.3611
291.635	0.3593
291.985	0.3529
292.335	0.3504
292.685	0.3469
293.035	0.3412
293.384	0.3343
293.734	0.3296
294.083	0.3268
294.433	0.3196
294.782	0.3165
295.131	0.3126
295.48	0.3058
295.829	0.3033
296.179	0.2997
296.527	0.2948
296.876	0.2901
297.225	0.2868
297.574	0.281
297.922	0.2775
298.271	0.2737
298.619	0.2704
298.968	0.2653
299.316	0.2613
299.664	0.2585
300.012	0.255
300.36	0.2517
300.708	0.2473
301.056	0.2433
301.404	0.2399
301.752	0.2377
302.099	0.2341
302.447	0.2309
302.794	0.2296
303.142	0.2258
303.489	0.2219
303.836	0.2198
304.183	0.2174
304.531	0.2149
304.878	0.2118
305.224	0.2109
305.571	0.2073
305.918	0.2059
306.265	0.204
306.611	0.2019
306.958	0.1994
307.304	0.1979
307.651	0.197
307.997	0.1955
308.343	0.1936
308.689	0.1919
309.035	0.1904
309.381	0.1894
309.727	0.1879
310.073	0.188
310.419	0.1873
310.764	0.1852
311.11	0.1839
311.455	0.1847
311.801	0.1834
312.146	0.1839
312.491	0.1827
312.837	0.1817
313.182	0.1819
313.527	0.1818
313.872	0.1804
314.216	0.1809
314.561	0.1817
314.906	0.1807
315.251	0.1822
315.595	0.1819
315.94	0.1812
316.284	0.1817
316.628	0.1829
316.972	0.1833
317.317	0.1837
317.661	0.1837
318.005	0.1837
318.348	0.1862
318.692	0.1864
319.036	0.1865
319.38	0.1871
319.723	0.188
320.067	0.1893
320.41	0.1907
320.754	0.1917
321.097	0.1928
321.44	0.1938
321.783	0.1954
322.126	0.1973
322.469	0.1972
322.812	0.1989
323.155	0.2007
323.498	0.2015
323.84	0.2042
324.183	0.2056
324.525	0.2063
324.868	0.2089
325.21	0.2093
325.552	0.2124
325.894	0.2127
326.236	0.2142
326.578	0.2159
326.92	0.218
327.262	0.2202
327.604	0.2211
327.946	0.2233
328.287	0.2246
328.629	0.2271
328.97	0.2287
329.312	0.2299
329.653	0.2316
329.994	0.2332
330.335	0.2358
330.676	0.2383
331.017	0.2397
331.358	0.2417
331.699	0.2435
332.04	0.2454
332.38	0.2474
332.721	0.2481
333.061	0.251
333.402	0.2535
333.742	0.2547
334.083	0.2565
334.423	0.2579
334.763	0.2596
335.103	0.2613
335.443	0.2624
335.783	0.2643
336.123	0.266
336.462	0.2671
336.802	0.2699
337.141	0.2706
337.481	0.2715
337.82	0.2734
338.16	0.2744
338.499	0.2767
338.838	0.2779
339.177	0.2802
339.516	0.2808
339.855	0.2826
340.194	0.2838
340.533	0.2852
340.872	0.2857
341.21	0.2875
341.549	0.2885
341.887	0.2903
342.226	0.2904
342.564	0.291
342.902	0.292
343.24	0.2921
343.578	0.2932
343.916	0.2937
344.254	0.2937
344.592	0.2948
344.93	0.2952
345.268	0.2954
345.605	0.2953
345.943	0.2952
346.28	0.2968
346.618	0.2967
346.955	0.2968
347.292	0.2963
347.629	0.2972
347.966	0.2969
348.303	0.2969
348.64	0.2978
348.977	0.2977
349.314	0.2983
349.65	0.2987
349.987	0.2983
350.324	0.2977
350.66	0.2971
350.996	0.2972
351.333	0.2961
351.669	0.2963
352.005	0.2952
352.341	0.2938
352.677	0.293
353.013	0.2922
353.349	0.2905
353.685	0.2901
354.02	0.288
354.356	0.2866
354.691	0.2852
355.027	0.2849
355.362	0.2844
355.697	0.2834
356.033	0.2813
356.368	0.2802
356.703	0.2794
357.038	0.2793
357.373	0.2771
357.707	0.2761
358.042	0.275
358.377	0.2749
358.711	0.2732
359.046	0.2715
359.38	0.2708
359.715	0.2688
360.049	0.2673
360.383	0.2667
360.717	0.2648
361.051	0.2629
361.385	0.2616
361.719	0.2594
362.053	0.2576
362.387	0.2562
362.72	0.2539
363.054	0.2509
363.387	0.2492
363.721	0.248
364.054	0.2446
364.387	0.2434
364.721	0.2412
365.054	0.2379
365.387	0.2365
365.72	0.2342
366.053	0.2329
366.385	0.2306
366.718	0.2294
367.051	0.228
367.383	0.2263
367.716	0.2243
368.048	0.2234
368.381	0.2207
368.713	0.22
369.045	0.2177
369.377	0.216
369.709	0.215
370.041	0.2126
370.373	0.2118
370.705	0.2092
371.037	0.2074
371.368	0.2052
371.7	0.2045
372.031	0.2019
372.363	0.1993
372.694	0.1967
373.025	0.1949
373.356	0.192
373.688	0.1906
374.019	0.1884
374.35	0.1856
374.68	0.183
375.011	0.1811
375.342	0.1774
375.673	0.1762
376.003	0.174
376.334	0.1723
376.664	0.1699
376.995	0.1683
377.325	0.1655
377.655	0.1645
377.985	0.1623
378.315	0.1612
378.645	0.1591
378.975	0.1576
379.305	0.1563
379.635	0.155
379.964	0.1538
380.294	0.1513
380.623	0.1504
380.953	0.1489
381.282	0.1467
381.611	0.1451
381.941	0.1437
382.27	0.142
382.599	0.1401
382.928	0.1384
383.257	0.1367
383.585	0.1353
383.914	0.1334
384.243	0.1309
384.571	0.1294
384.9	0.1267
385.228	0.1247
385.557	0.1228
385.885	0.1209
386.213	0.1193
386.541	0.1179
386.869	0.1158
387.197	0.1138
387.525	0.1119
387.853	0.1103
388.181	0.1083
388.508	0.1063
388.836	0.1046
389.164	0.1026
389.491	0.1024
389.818	0.1002
390.146	0.099
390.473	0.0975
390.8	0.0966
391.127	0.0943
391.454	0.0934
391.781	0.0919
392.108	0.0913
392.435	0.0898
392.761	0.0878
393.088	0.0877
393.415	0.0859
393.741	0.0857
394.067	0.0842
394.394	0.0836
394.72	0.0818
395.046	0.0818
395.372	0.0808
395.698	0.0798
396.024	0.0783
396.35	0.0772
396.676	0.0755
397.001	0.0754
397.327	0.0736
397.653	0.0722
397.978	0.0712
398.303	0.0699
398.629	0.069
398.954	0.0678
399.279	0.0673
399.604	0.0664
399.929	0.0657
400.254	0.0645
400.579	0.0641
400.904	0.0633
401.229	0.0623
401.553	0.062
401.878	0.0616
402.202	0.0599
402.527	0.06
402.851	0.0589
403.175	0.0588
403.5	0.0582
403.824	0.0575
404.148	0.0571
404.472	0.0559
404.796	0.0561
405.119	0.0553
405.443	0.0552
405.767	0.0537
406.09	0.0541
406.414	0.0537
406.737	0.0531
407.061	0.0533
407.384	0.0534
407.707	0.0527
408.03	0.0516
408.353	0.0529
408.676	0.0513
408.999	0.0516
409.322	0.0523
409.645	0.0516
409.968	0.0511
410.29	0.0507
410.613	0.0507
410.935	0.0503
411.258	0.0503
411.58	0.0498
411.902	0.0498
412.224	0.0496
412.546	0.0496
412.868	0.0497
413.19	0.0499
413.512	0.0499
413.834	0.0485
414.156	0.0485
414.477	0.0494
414.799	0.0485
415.121	0.0493
415.442	0.0483
415.763	0.0484
416.085	0.049
416.406	0.0495
416.727	0.0492
417.048	0.0486
417.369	0.0484
417.69	0.048
418.011	0.0481
418.331	0.0489
418.652	0.049
418.973	0.0487
419.293	0.0489
419.614	0.0491
419.934	0.0494
420.254	0.0486
420.574	0.0487
420.895	0.0492
421.215	0.0483
421.535	0.0486
421.855	0.0487
422.174	0.0487
422.494	0.0479
422.814	0.0482
423.134	0.048
423.453	0.0483
423.773	0.0486
424.092	0.0485
424.411	0.0481
424.731	0.0485
425.05	0.048
425.369	0.0482
425.688	0.0484
426.007	0.0482
426.326	0.0486
426.644	0.0487
426.963	0.0489
427.282	0.0485
427.6	0.0486
427.919	0.0478
428.237	0.0486
428.556	0.0484
428.874	0.0486
429.192	0.0491
429.51	0.0491
429.828	0.0497
430.146	0.0493
430.464	0.0481
430.782	0.0483
431.1	0.0488
431.418	0.0488
431.735	0.0481
432.053	0.049
432.37	0.0489
432.688	0.0483
433.005	0.0487
433.322	0.049
433.639	0.049
433.957	0.0491
434.274	0.0486
434.591	0.0486
434.907	0.0486
435.224	0.0479
435.541	0.0479
435.858	0.049
436.174	0.0485
436.491	0.0484
436.807	0.0477
437.124	0.0488
437.44	0.048
437.756	0.0482
438.072	0.049
438.388	0.0486
438.704	0.0477
439.02	0.0482
439.336	0.0477
439.652	0.0474
439.968	0.0474
440.283	0.0467
440.599	0.0469
440.914	0.0485
441.23	0.0483
441.545	0.0475
441.86	0.0478
442.175	0.0473
442.491	0.0475
442.806	0.0476
443.121	0.0471
443.435	0.0468
443.75	0.0475
444.065	0.0467
444.38	0.047
444.694	0.0468
445.009	0.0469
445.323	0.0468
445.638	0.0457
445.952	0.0471
446.266	0.0472
446.58	0.0467
446.894	0.0465
447.208	0.0461
447.522	0.0465
447.836	0.0459
448.15	0.0458
448.464	0.0456
448.777	0.0458
449.091	0.0457
449.404	0.0456
449.718	0.0448
450.031	0.0448
450.345	0.0452
450.658	0.0452
450.971	0.0445
451.284	0.0448
451.597	0.0448
451.91	0.0442
452.223	0.0441
452.535	0.0444
452.848	0.0444
453.161	0.0429
453.473	0.0438
453.786	0.0433
454.098	0.0433
454.411	0.0439
454.723	0.0424
455.035	0.0419
455.347	0.042
455.659	0.0424
455.971	0.0428
456.283	0.0421
456.595	0.0421
456.907	0.0421
457.218	0.0414
457.53	0.0406
457.841	0.0412
458.153	0.0416
458.464	0.0413
458.776	0.041
459.087	0.0405
459.398	0.0407
459.709	0.0405
460.02	0.0407
460.331	0.0392
460.642	0.0401
460.953	0.0392
461.263	0.0393
461.574	0.0392
461.885	0.0382
462.195	0.0378
462.506	0.0384
462.816	0.0377
463.126	0.0387
463.437	0.0377
463.747	0.0369
464.057	0.0371
464.367	0.0374
464.677	0.0366
464.987	0.0353
465.296	0.0366
465.606	0.0353
465.916	0.0356
466.225	0.0359
466.535	0.0355
466.844	0.0357
467.154	0.0354
467.463	0.0351
467.772	0.034
468.081	0.034
468.39	0.0351
468.699	0.0338
469.008	0.0324
469.317	0.0333
469.626	0.0316
469.935	0.0313
470.243	0.032
470.552	0.032
470.86	0.0316
471.169	0.0316
471.477	0.0313
471.785	0.0311
472.093	0.031
472.402	0.0303
472.71	0.0313
473.018	0.0292
473.326	0.0297
473.633	0.03
473.941	0.0296
474.249	0.0293
474.556	0.0301
474.864	0.0303
475.171	0.0291
475.479	0.0285
475.786	0.0288
476.094	0.028
476.401	0.0277
476.708	0.0286
477.015	0.0278
477.322	0.0269
477.629	0.0265
477.936	0.0271
478.242	0.0258
478.549	0.0262
478.856	0.0268
479.162	0.0255
479.469	0.026
479.775	0.026
480.081	0.0252
480.388	0.0249
480.694	0.0257
481	0.0248
481.306	0.0241
481.612	0.0246
481.918	0.0241
482.224	0.0234
482.53	0.0234
482.835	0.0237
483.141	0.0233
483.446	0.023
483.752	0.0222
484.057	0.0221
484.363	0.0221
484.668	0.022
484.973	0.0205
485.278	0.0212
485.583	0.0214
485.888	0.0211
486.193	0.0198
486.498	0.0202
486.803	0.02
487.107	0.0204
487.412	0.0198
487.717	0.0189
488.021	0.019
488.325	0.0198
488.63	0.0203
488.934	0.0194
489.238	0.0185
489.542	0.017
489.846	0.0181
490.15	0.0182
490.454	0.0178
490.758	0.0174
491.062	0.0165
491.366	0.0174
491.669	0.0162
491.973	0.0174
492.276	0.0174
492.58	0.0165
492.883	0.0148
493.186	0.0156
493.489	0.0147
493.792	0.0144
494.096	0.0148
494.399	0.0152
494.701	0.0153
495.004	0.0138
495.307	0.0146
495.61	0.0135
495.912	0.0141
496.215	0.013
496.517	0.0126
496.82	0.0138
497.122	0.0123
497.424	0.0128
497.727	0.0129
498.029	0.0114
498.331	0.0122
498.633	0.0121
498.935	0.0121
499.237	0.0111
499.538	0.0118
499.84	0.0116
500.142	0.0108
500.443	0.0102
500.745	0.0104
501.046	0.0099
501.348	0.0101
501.649	0.0101
501.95	0.0093
502.251	0.0098
502.552	0.0105
502.853	0.0093
503.154	0.0088
503.455	0.0098
503.756	0.0096
504.057	0.0102
504.357	0.0081
504.658	0.0088
504.958	0.009
505.259	0.0088
505.559	0.0078
505.859	0.0074
506.16	0.0078
506.46	0.0077
506.76	0.008
507.06	0.0079
507.36	0.0076
507.66	0.008
507.96	0.0085
508.259	0.0068
508.559	0.0077
508.859	0.0065
509.158	0.007
509.457	0.0065
509.757	0.0063
510.056	0.0068
510.355	0.0059
510.655	0.0065
510.954	0.0068
511.253	0.0065
511.552	0.0059
511.851	0.0059
512.149	0.0045
512.448	0.0054
512.747	0.0051
513.045	0.0044
513.344	0.005
513.642	0.0047
513.941	0.0048
514.239	0.0047
514.537	0.0038
514.836	0.0047
515.134	0.0034
515.432	0.005
515.73	0.0035
516.028	0.0036
516.326	0.0045
516.623	0.0034
516.921	0.0035
517.219	0.0043
517.516	0.0048
517.814	0.0032
518.111	0.0035
518.409	0.0028
518.706	0.0027
519.003	0.0031
519.3	0.0035
519.597	0.0024
519.894	0.0029
520.191	0.0027
520.488	0.0029
520.785	0.0016
521.082	0.0031
521.378	0.0022
521.675	0.0016
521.971	0.0011
522.268	0.0024
522.564	0.0021
522.861	0.0032
523.157	0.0032
523.453	0.0029
523.749	0.0027
524.045	0.0022
524.341	0.0024
524.637	0.0006
524.933	0.0009
525.229	0.0021
525.524	0.0007
525.82	0.0013
526.115	0.0009
526.411	0.001
526.706	0.0011
527.002	0.0019
527.297	0.0007
527.592	0.0011
527.887	0.002
528.182	0.0018
528.477	0.0021
528.772	0.0017
529.067	0.0017
529.362	0.0016
529.657	0.0012
529.951	0.0011
530.246	-0.0002
530.54	0.0001
530.835	0.0007
531.129	0.001
531.423	0.001
531.718	0.0005
532.012	0.0012
532.306	0.0005
532.6	-0.0006
532.894	0.0004
533.188	0.0009
533.482	0.0005
533.775	0.0004
534.069	0.0001
534.363	-0.0003
534.656	-0.0008
534.95	-0.0001
535.243	-0.0001
535.536	0.001
535.83	-0.0016
536.123	-0.0001
536.416	-0.0004
536.709	0.0011
537.002	-0.0013
537.295	0
537.588	-0.0006
537.881	-0.0003
538.173	0.0001
538.466	-0.0006
538.759	0.0002
539.051	0.0004
539.344	-0.0007
539.636	-0.0002
539.928	0.0008
540.22	0.001
540.513	-0.0002
540.805	-0.0001
541.097	-0.0008
541.389	-0.0002
541.681	-0.0004
541.972	0.0004
542.264	0.0001
542.556	-0.0005
542.847	0.0001
543.139	-0.0008
543.431	-0.0005
543.722	-0.0006
544.013	0.0002
544.305	-0.0007
544.596	-0.0014
544.887	0.0001
545.178	-0.0003
545.469	-0.0007
545.76	-0.0005
546.051	0.0004
546.342	-0.0011
546.632	-0.0017
546.923	-0.0001
547.214	-0.0007
547.504	-0.0007
547.795	-0.0008
548.085	-0.0016
548.375	-0.0002
548.666	-0.0008
548.956	-0.001
549.246	-0.0013
549.536	-0.001
549.826	-0.0008
550.116	-0.0008
550.406	-0.0016
550.695	-0.0022
550.985	-0.0003
551.275	-0.0017
551.564	-0.0015
551.854	-0.0002
552.143	-0.0019
552.433	-0.0017
552.722	-0.0017
553.011	0.0004
553.3	-0.0002
553.589	-0.0011
553.879	-0.0013
554.167	-0.0007
554.456	0.0007
554.745	0.0003
555.034	-0.0012
555.323	0.0008
555.611	0.0004
555.9	0.0002
556.188	0
556.477	-0
556.765	-0.003
557.053	-0.0015
557.342	-0.0006
557.63	-0.0002
557.918	-0.0007
558.206	0.0005
558.494	0.0006
558.782	-0.0001
559.069	0.0011
559.357	0.0011
559.645	0.0001
559.932	0.0007
560.22	-0.0007
560.507	-0.0007
560.795	-0.0014
561.082	-0.0022
561.37	-0.0009
561.657	-0.0008
561.944	-0.0012
562.231	-0.0005
562.518	-0.0007
562.805	-0.0001
563.092	0.0007
563.379	0.0011
563.665	0.0004
563.952	0.0005
564.239	0.0004
564.525	0.0002
564.811	0.0012
565.098	0.0006
565.384	-0.0009
565.67	0.0009
565.957	0.0014
566.243	0.0022
566.529	-0.0001
566.815	-0.0004
567.101	0.0016
567.387	0.0007
567.672	0.0009
567.958	0.0017
568.244	0.0009
568.529	0.0012
568.815	-0.0001
569.1	-0.0003
569.386	-0.0004
569.671	0.0009
569.956	0.0007
570.242	0.0004
570.527	0.0004
570.812	0.0004
571.097	0.0007
571.382	-0.0003
571.666	0.0013
571.951	0.0006
572.236	0.0003
572.521	0.0005
572.805	0.0003
573.09	0.0001
573.374	-0.001
573.659	0.0004
573.943	-0.0003
574.227	-0.0002
574.511	-0.0009
574.795	0.0002
575.079	-0
575.363	-0.0007
575.647	0.0001
575.931	-0
576.215	-0.0008
576.499	-0.001
576.782	-0.0008
577.066	-0.001
577.349	-0.0002
577.633	-0.0009
577.916	-0.0007
578.2	-0.0003
578.483	-0.0002
578.766	0.0006
579.049	0.0004
579.332	0.001
579.615	0.0012
579.898	-0.0004
580.181	0.0007
580.464	0.0007
580.746	0.0008
581.029	-0.0002
581.312	-0.0005
581.594	-0.0008
581.877	-0.0004
582.159	-0.0003
582.441	-0.0014
582.724	-0.0004
583.006	-0.0003
583.288	0.0007
583.57	0.0006
583.852	0.0004
584.134	0.0007
584.416	0
584.697	-0.0001
584.979	-0.0006
585.261	-0.0011
585.542	-0.0008
585.824	-0.0009
586.105	-0.0013
586.387	-0.0015
586.668	-0.0006
586.949	-0.0006
587.231	0.0002
587.512	0
587.793	0.0004
588.074	-0.0005
588.355	-0.0003
588.636	-0.0005
588.916	-0.0012
589.197	0.0002
589.478	-0.0007
589.758	0.0003
590.039	-0.0003
590.319	0.0003
590.6	0.0003
590.88	0.0003
591.16	0.0004
591.441	0.0012
591.721	0.0001
592.001	-0
592.281	-0
592.561	0.0003
592.841	-0.0005
593.12	-0.0016
593.4	-0.0006
593.68	-0.0018
593.959	-0.0011
594.239	-0.0012
594.518	-0.0004
