Data from 03 0.5 mM K2Cr2O7 0.3 mM BQDS 1 M H2SO4 5 min_Absorbance_0202.txt Node
Date: Tue Dec 14 10:29:45 EST 2021
User: kwabilab-user
Spectrometer: HDX00518
Trigger mode: 0
Integration Time (sec): 5.000000E-2
Scans to average: 50
Nonlinearity correction enabled: false
Boxcar width: 0
Storing dark spectrum: false
XAxis mode: Wavelengths
Number of Pixels in Spectrum: 2068
>>>>>Begin Spectral Data<<<<<
195.27	-0.0775
195.642	-0.1072
196.014	-0.0093
196.386	-0.0125
196.758	0.0097
197.129	-0.005
197.501	0.0094
197.872	0.0125
198.244	0.0357
198.615	0.0396
198.986	0.0343
199.357	0.0552
199.728	0.0396
200.099	0.0544
200.47	0.0341
200.841	0.0313
201.212	0.053
201.582	0.0468
201.953	0.0494
202.323	0.0568
202.694	0.0556
203.064	0.0224
203.434	0.0518
203.804	0.0182
204.174	0.0585
204.544	0.0425
204.914	0.0422
205.284	0.0582
205.653	0.0517
206.023	0.0325
206.393	0.0317
206.762	0.0587
207.131	0.0657
207.501	0.0399
207.87	0.063
208.239	0.0408
208.608	0.0413
208.977	0.0334
209.346	0.0482
209.715	0.0311
210.083	0.0445
210.452	0.0372
210.82	0.055
211.189	0.0422
211.557	0.0561
211.925	0.0446
212.294	0.0497
212.662	0.0488
213.03	0.042
213.398	0.0658
213.766	0.0778
214.133	0.0679
214.501	0.071
214.869	0.0644
215.236	0.0559
215.604	0.0677
215.971	0.0595
216.338	0.084
216.705	0.0624
217.072	0.0962
217.439	0.0817
217.806	0.0905
218.173	0.0713
218.54	0.0743
218.907	0.0872
219.273	0.0981
219.64	0.1032
220.006	0.1226
220.373	0.1232
220.739	0.1432
221.105	0.1607
221.471	0.1836
221.837	0.1808
222.203	0.192
222.569	0.2109
222.935	0.2458
223.3	0.25
223.666	0.2723
224.031	0.2907
224.397	0.293
224.762	0.3368
225.127	0.3581
225.493	0.3694
225.858	0.3922
226.223	0.4345
226.588	0.4382
226.952	0.4673
227.317	0.4874
227.682	0.4811
228.046	0.5072
228.411	0.5421
228.775	0.5554
229.14	0.5411
229.504	0.584
229.868	0.5942
230.232	0.582
230.596	0.604
230.96	0.631
231.324	0.6198
231.688	0.6382
232.052	0.641
232.415	0.6359
232.779	0.6588
233.142	0.6529
233.505	0.6559
233.869	0.6792
234.232	0.6659
234.595	0.6626
234.958	0.6615
235.321	0.6621
235.684	0.6736
236.047	0.6676
236.409	0.6588
236.772	0.665
237.134	0.6721
237.497	0.6606
237.859	0.6673
238.222	0.6703
238.584	0.6511
238.946	0.6613
239.308	0.6506
239.67	0.6388
240.032	0.6361
240.393	0.6523
240.755	0.6381
241.117	0.6434
241.478	0.6317
241.84	0.6319
242.201	0.6218
242.562	0.6241
242.924	0.6172
243.285	0.6196
243.646	0.6231
244.007	0.6145
244.368	0.617
244.728	0.6195
245.089	0.621
245.45	0.6112
245.81	0.6104
246.171	0.5984
246.531	0.5989
246.891	0.5993
247.252	0.5924
247.612	0.5899
247.972	0.5983
248.332	0.6019
248.692	0.6001
249.051	0.5938
249.411	0.5951
249.771	0.589
250.13	0.5863
250.49	0.5843
250.849	0.5854
251.208	0.5831
251.568	0.5832
251.927	0.5828
252.286	0.5836
252.645	0.5869
253.004	0.5834
253.363	0.5742
253.721	0.5778
254.08	0.5738
254.439	0.5704
254.797	0.5687
255.155	0.5709
255.514	0.5646
255.872	0.5748
256.23	0.5634
256.588	0.5667
256.946	0.5621
257.304	0.5681
257.662	0.5623
258.02	0.5647
258.377	0.5629
258.735	0.5572
259.093	0.5567
259.45	0.5565
259.807	0.5546
260.165	0.5582
260.522	0.5523
260.879	0.5507
261.236	0.5466
261.593	0.5506
261.95	0.5394
262.306	0.543
262.663	0.5384
263.02	0.5388
263.376	0.5344
263.733	0.5351
264.089	0.5273
264.445	0.526
264.802	0.5271
265.158	0.5256
265.514	0.5227
265.87	0.5136
266.226	0.5176
266.581	0.5152
266.937	0.5178
267.293	0.5065
267.648	0.5025
268.004	0.5004
268.359	0.5002
268.714	0.4977
269.07	0.4947
269.425	0.4887
269.78	0.486
270.135	0.4846
270.49	0.4855
270.844	0.4805
271.199	0.4798
271.554	0.4763
271.908	0.4677
272.263	0.469
272.617	0.4652
272.972	0.4655
273.326	0.457
273.68	0.455
274.034	0.4563
274.388	0.4475
274.742	0.4495
275.096	0.4417
275.45	0.4386
275.803	0.4355
276.157	0.435
276.51	0.4291
276.864	0.4229
277.217	0.4198
277.571	0.4211
277.924	0.4159
278.277	0.4119
278.63	0.4095
278.983	0.4024
279.336	0.3982
279.688	0.3973
280.041	0.3898
280.394	0.3895
280.746	0.3843
281.099	0.3799
281.451	0.3781
281.803	0.3707
282.156	0.3661
282.508	0.3659
282.86	0.3594
283.212	0.3579
283.564	0.3528
283.916	0.3497
284.267	0.3449
284.619	0.3395
284.971	0.3374
285.322	0.3337
285.673	0.3307
286.025	0.3269
286.376	0.3217
286.727	0.3178
287.078	0.3167
287.429	0.3101
287.78	0.3077
288.131	0.3044
288.482	0.2993
288.833	0.2928
289.183	0.2898
289.534	0.2875
289.884	0.2831
290.235	0.2795
290.585	0.2761
290.935	0.2732
291.285	0.267
291.635	0.2649
291.985	0.2615
292.335	0.257
292.685	0.2554
293.035	0.2506
293.384	0.2462
293.734	0.243
294.083	0.2397
294.433	0.2354
294.782	0.2336
295.131	0.2275
295.48	0.2236
295.829	0.2221
296.179	0.2186
296.527	0.2166
296.876	0.2114
297.225	0.2085
297.574	0.2038
297.922	0.202
298.271	0.1998
298.619	0.1972
298.968	0.1927
299.316	0.1899
299.664	0.1871
300.012	0.1853
300.36	0.1824
300.708	0.1793
301.056	0.1771
301.404	0.1746
301.752	0.1741
302.099	0.169
302.447	0.1671
302.794	0.1647
303.142	0.1631
303.489	0.1612
303.836	0.1595
304.183	0.1572
304.531	0.1558
304.878	0.1539
305.224	0.1527
305.571	0.1498
305.918	0.1493
306.265	0.1464
306.611	0.1461
306.958	0.1462
307.304	0.143
307.651	0.1433
307.997	0.1424
308.343	0.141
308.689	0.1407
309.035	0.1386
309.381	0.1381
309.727	0.138
310.073	0.1381
310.419	0.1364
310.764	0.1351
311.11	0.1351
311.455	0.1344
311.801	0.135
312.146	0.1345
312.491	0.1337
312.837	0.1334
313.182	0.1338
313.527	0.1343
313.872	0.1339
314.216	0.1334
314.561	0.1337
314.906	0.1337
315.251	0.1349
315.595	0.1345
315.94	0.1354
316.284	0.1356
316.628	0.1359
316.972	0.1367
317.317	0.138
317.661	0.1381
318.005	0.1382
318.348	0.1395
318.692	0.1401
319.036	0.1401
319.38	0.1418
319.723	0.143
320.067	0.1437
320.41	0.1443
320.754	0.146
321.097	0.1469
321.44	0.147
321.783	0.1489
322.126	0.1511
322.469	0.1512
322.812	0.1527
323.155	0.1542
323.498	0.1559
323.84	0.1573
324.183	0.1589
324.525	0.1609
324.868	0.1612
325.21	0.1619
325.552	0.165
325.894	0.1653
326.236	0.1678
326.578	0.1681
326.92	0.1699
327.262	0.1718
327.604	0.1729
327.946	0.1746
328.287	0.1758
328.629	0.1786
328.97	0.1794
329.312	0.181
329.653	0.1823
329.994	0.1843
330.335	0.1859
330.676	0.1881
331.017	0.1894
331.358	0.1915
331.699	0.1929
332.04	0.1948
332.38	0.1957
332.721	0.1985
333.061	0.1996
333.402	0.2017
333.742	0.2037
334.083	0.2053
334.423	0.2058
334.763	0.2076
335.103	0.209
335.443	0.2102
335.783	0.2119
336.123	0.2134
336.462	0.2144
336.802	0.2166
337.141	0.2172
337.481	0.2179
337.82	0.2198
338.16	0.2211
338.499	0.2228
338.838	0.2236
339.177	0.2259
339.516	0.2272
339.855	0.229
340.194	0.2296
340.533	0.2303
340.872	0.2313
341.21	0.233
341.549	0.2339
341.887	0.2341
342.226	0.2356
342.564	0.2372
342.902	0.2367
343.24	0.2379
343.578	0.2383
343.916	0.2395
344.254	0.2391
344.592	0.2393
344.93	0.2408
345.268	0.2406
345.605	0.2394
345.943	0.2412
346.28	0.2416
346.618	0.2418
346.955	0.2418
347.292	0.2424
347.629	0.2423
347.966	0.2425
348.303	0.2426
348.64	0.2434
348.977	0.2435
349.314	0.2441
349.65	0.2439
349.987	0.2437
350.324	0.2442
350.66	0.2438
350.996	0.2427
351.333	0.2425
351.669	0.2429
352.005	0.2422
352.341	0.2411
352.677	0.2397
353.013	0.2397
353.349	0.2391
353.685	0.2375
354.02	0.2364
354.356	0.2355
354.691	0.2338
355.027	0.2334
355.362	0.2332
355.697	0.2321
356.033	0.2316
356.368	0.23
356.703	0.2291
357.038	0.2294
357.373	0.2274
357.707	0.2262
358.042	0.225
358.377	0.2252
358.711	0.2241
359.046	0.2227
359.38	0.2217
359.715	0.2205
360.049	0.2199
360.383	0.2187
360.717	0.2182
361.051	0.217
361.385	0.2155
361.719	0.2128
362.053	0.2117
362.387	0.2095
362.72	0.2083
363.054	0.2057
363.387	0.2056
363.721	0.2031
364.054	0.2011
364.387	0.1993
364.721	0.1976
365.054	0.1959
365.387	0.195
365.72	0.192
366.053	0.1909
366.385	0.1891
366.718	0.188
367.051	0.1867
367.383	0.185
367.716	0.1834
368.048	0.1828
368.381	0.1806
368.713	0.1804
369.045	0.1794
369.377	0.1767
369.709	0.1762
370.041	0.1747
370.373	0.1727
370.705	0.1703
371.037	0.1693
371.368	0.1679
371.7	0.1669
372.031	0.165
372.363	0.1626
372.694	0.1607
373.025	0.1579
373.356	0.1566
373.688	0.1551
374.019	0.1527
374.35	0.1513
374.68	0.1492
375.011	0.1473
375.342	0.1441
375.673	0.1429
376.003	0.1402
376.334	0.1392
376.664	0.1376
376.995	0.1364
377.325	0.1336
377.655	0.1327
377.985	0.1315
378.315	0.1299
378.645	0.1287
378.975	0.1278
379.305	0.1263
379.635	0.1253
379.964	0.1243
380.294	0.1222
380.623	0.1217
380.953	0.1194
381.282	0.1181
381.611	0.1171
381.941	0.1154
382.27	0.1142
382.599	0.1128
382.928	0.1108
383.257	0.1097
383.585	0.108
383.914	0.1073
384.243	0.1048
384.571	0.1032
384.9	0.1008
385.228	0.0997
385.557	0.0982
385.885	0.0964
386.213	0.0949
386.541	0.0941
386.869	0.0913
387.197	0.0899
387.525	0.0888
387.853	0.0872
388.181	0.0861
388.508	0.0837
388.836	0.0822
389.164	0.0812
389.491	0.0803
389.818	0.0797
390.146	0.0784
390.473	0.0773
390.8	0.0758
391.127	0.0743
391.454	0.0728
391.781	0.0725
392.108	0.0712
392.435	0.0696
392.761	0.0692
393.088	0.0683
393.415	0.0675
393.741	0.0666
394.067	0.0658
394.394	0.0654
394.72	0.0639
395.046	0.0637
395.372	0.0624
395.698	0.0616
396.024	0.0611
396.35	0.0602
396.676	0.0587
397.001	0.0577
397.327	0.0569
397.653	0.0561
397.978	0.055
398.303	0.0542
398.629	0.0521
398.954	0.0518
399.279	0.0514
399.604	0.0514
399.929	0.0505
400.254	0.0496
400.579	0.0492
400.904	0.0486
401.229	0.0475
401.553	0.0471
401.878	0.0465
402.202	0.0462
402.527	0.0457
402.851	0.0457
403.175	0.0443
403.5	0.0443
403.824	0.0437
404.148	0.0439
404.472	0.0425
404.796	0.0422
405.119	0.0427
405.443	0.0419
405.767	0.0405
406.09	0.0408
406.414	0.0404
406.737	0.0411
407.061	0.0403
407.384	0.0402
407.707	0.0403
408.03	0.0394
408.353	0.0398
408.676	0.0394
408.999	0.0393
409.322	0.0393
409.645	0.0394
409.968	0.0393
410.29	0.0383
410.613	0.039
410.935	0.0389
411.258	0.0388
411.58	0.0386
411.902	0.0383
412.224	0.0379
412.546	0.0378
412.868	0.0382
413.19	0.0379
413.512	0.0383
413.834	0.037
414.156	0.0378
414.477	0.0375
414.799	0.0373
415.121	0.0383
415.442	0.0377
415.763	0.0376
416.085	0.0381
416.406	0.0381
416.727	0.0377
417.048	0.0377
417.369	0.0377
417.69	0.037
418.011	0.0373
418.331	0.0378
418.652	0.0376
418.973	0.0376
419.293	0.0382
419.614	0.0382
419.934	0.0383
420.254	0.0379
420.574	0.0381
420.895	0.0379
421.215	0.0377
421.535	0.0371
421.855	0.0369
422.174	0.037
422.494	0.0371
422.814	0.0372
423.134	0.0372
423.453	0.0374
423.773	0.0377
424.092	0.0378
424.411	0.0371
424.731	0.0375
425.05	0.0373
425.369	0.0374
425.688	0.0378
426.007	0.0369
426.326	0.0378
426.644	0.0381
426.963	0.038
427.282	0.0378
427.6	0.038
427.919	0.0374
428.237	0.0383
428.556	0.0381
428.874	0.0383
429.192	0.0383
429.51	0.0382
429.828	0.0385
430.146	0.0383
430.464	0.0369
430.782	0.0378
431.1	0.038
431.418	0.0376
431.735	0.0371
432.053	0.0382
432.37	0.0383
432.688	0.0377
433.005	0.038
433.322	0.0384
433.639	0.038
433.957	0.0385
434.274	0.0379
434.591	0.038
434.907	0.0378
435.224	0.0381
435.541	0.0376
435.858	0.0386
436.174	0.0382
436.491	0.0376
436.807	0.0371
437.124	0.038
437.44	0.0381
437.756	0.0376
438.072	0.0389
438.388	0.0383
438.704	0.0378
439.02	0.0381
439.336	0.037
439.652	0.0374
439.968	0.0366
440.283	0.0372
440.599	0.0373
440.914	0.0385
441.23	0.038
441.545	0.0376
441.86	0.0373
442.175	0.0368
442.491	0.0372
442.806	0.037
443.121	0.0365
443.435	0.0365
443.75	0.0371
444.065	0.0367
444.38	0.0369
444.694	0.0375
445.009	0.0368
445.323	0.0366
445.638	0.0356
445.952	0.0368
446.266	0.0367
446.58	0.0364
446.894	0.0366
447.208	0.0367
447.522	0.0363
447.836	0.0361
448.15	0.0359
448.464	0.036
448.777	0.0361
449.091	0.035
449.404	0.0354
449.718	0.0349
450.031	0.0353
450.345	0.0356
450.658	0.036
450.971	0.0352
451.284	0.0352
451.597	0.0347
451.91	0.0341
452.223	0.0348
452.535	0.0334
452.848	0.035
453.161	0.0338
453.473	0.0346
453.786	0.0329
454.098	0.0339
454.411	0.0352
454.723	0.0329
455.035	0.0327
455.347	0.0325
455.659	0.0324
455.971	0.0329
456.283	0.0324
456.595	0.0322
456.907	0.0327
457.218	0.0331
457.53	0.0313
457.841	0.0319
458.153	0.0323
458.464	0.0314
458.776	0.032
459.087	0.0312
459.398	0.0314
459.709	0.0312
460.02	0.0313
460.331	0.0301
460.642	0.0314
460.953	0.0303
461.263	0.0299
461.574	0.0297
461.885	0.0295
462.195	0.0295
462.506	0.0299
462.816	0.0295
463.126	0.0293
463.437	0.0287
463.747	0.0284
464.057	0.0279
464.367	0.0281
464.677	0.0275
464.987	0.0276
465.296	0.028
465.606	0.027
465.916	0.0273
466.225	0.027
466.535	0.0268
466.844	0.027
467.154	0.0273
467.463	0.0259
467.772	0.0261
468.081	0.0261
468.39	0.0252
468.699	0.0254
469.008	0.0246
469.317	0.0252
469.626	0.0246
469.935	0.0244
470.243	0.0245
470.552	0.0245
470.86	0.0247
471.169	0.0247
471.477	0.0243
471.785	0.0238
472.093	0.0246
472.402	0.0233
472.71	0.0239
473.018	0.0227
473.326	0.0217
473.633	0.0233
473.941	0.0225
474.249	0.0221
474.556	0.0228
474.864	0.0221
475.171	0.0216
475.479	0.0221
475.786	0.0217
476.094	0.0208
476.401	0.0207
476.708	0.0209
477.015	0.021
477.322	0.0204
477.629	0.0195
477.936	0.0207
478.242	0.0195
478.549	0.0196
478.856	0.0191
479.162	0.0191
479.469	0.0192
479.775	0.0191
480.081	0.0194
480.388	0.0181
480.694	0.018
481	0.0178
481.306	0.0182
481.612	0.0187
481.918	0.0178
482.224	0.0172
482.53	0.0165
482.835	0.017
483.141	0.0171
483.446	0.0166
483.752	0.0166
484.057	0.0161
484.363	0.0151
484.668	0.0158
484.973	0.0146
485.278	0.0145
485.583	0.015
485.888	0.015
486.193	0.0136
486.498	0.0139
486.803	0.0135
487.107	0.0132
487.412	0.0131
487.717	0.0134
488.021	0.0128
488.325	0.0138
488.63	0.0141
488.934	0.014
489.238	0.0131
489.542	0.0123
489.846	0.0132
490.15	0.0128
490.454	0.012
490.758	0.012
491.062	0.0121
491.366	0.0122
491.669	0.012
491.973	0.0119
492.276	0.0112
492.58	0.0115
492.883	0.0103
493.186	0.0105
493.489	0.0106
493.792	0.0097
494.096	0.0094
494.399	0.0105
494.701	0.0101
495.004	0.0088
495.307	0.0095
495.61	0.0089
495.912	0.0098
496.215	0.0085
496.517	0.0087
496.82	0.0079
497.122	0.008
497.424	0.0084
497.727	0.0084
498.029	0.0072
498.331	0.0078
498.633	0.0083
498.935	0.0077
499.237	0.0074
499.538	0.0074
499.84	0.007
500.142	0.0064
500.443	0.0065
500.745	0.0068
501.046	0.0052
501.348	0.0065
501.649	0.0048
501.95	0.0056
502.251	0.0057
502.552	0.0056
502.853	0.0049
503.154	0.0043
503.455	0.0054
503.756	0.0049
504.057	0.0057
504.357	0.0045
504.658	0.006
504.958	0.0054
505.259	0.0052
505.559	0.0043
505.859	0.0043
506.16	0.0049
506.46	0.0039
506.76	0.005
507.06	0.0045
507.36	0.004
507.66	0.0046
507.96	0.0045
508.259	0.0034
508.559	0.0041
508.859	0.0037
509.158	0.0037
509.457	0.0034
509.757	0.0026
510.056	0.0036
510.355	0.0039
510.655	0.0024
510.954	0.0026
511.253	0.0029
511.552	0.0029
511.851	0.0027
512.149	0.0015
512.448	0.0026
512.747	0.0021
513.045	0.0014
513.344	0.0023
513.642	0.0014
513.941	0.0017
514.239	0.002
514.537	0.0012
514.836	0.0021
515.134	0.0002
515.432	0.0031
515.73	0.0023
516.028	0.0015
516.326	0.0016
516.623	0.0013
516.921	0.0008
517.219	0.0011
517.516	0.0009
517.814	0.0014
518.111	0.001
518.409	0.0003
518.706	0.0003
519.003	0.002
519.3	0.0007
519.597	0.0001
519.894	0.0008
520.191	0.0007
520.488	0.0021
520.785	-0.0003
521.082	0.0004
521.378	0
521.675	0.0008
521.971	0.0002
522.268	0.0007
522.564	0.001
522.861	0.0004
523.157	0.0009
523.453	0.001
523.749	-0
524.045	0.0004
524.341	0.0008
524.637	0.0004
524.933	-0.0005
525.229	-0.0003
525.524	0
525.82	-0.0009
526.115	-0.0003
526.411	0.0009
526.706	0.0004
527.002	0.0002
527.297	-0.001
527.592	0.0001
527.887	0.0006
528.182	0.0003
528.477	0.0001
528.772	0.0003
529.067	0.0007
529.362	0.0002
529.657	-0.001
529.951	-0
530.246	-0.0001
530.54	-0.0002
530.835	-0.0009
531.129	0.0003
531.423	-0.0002
531.718	-0.0006
532.012	-0.001
532.306	0
532.6	-0.0017
532.894	0.0002
533.188	-0.0006
533.482	0.0002
533.775	-0.0001
534.069	-0.001
534.363	-0.0021
534.656	-0.0015
534.95	-0.0002
535.243	-0.0014
535.536	-0.0013
535.83	-0.0021
536.123	-0.0011
536.416	-0.0011
536.709	-0.0011
537.002	-0.0015
537.295	-0.0014
537.588	-0.0011
537.881	-0.0028
538.173	-0.0021
538.466	-0.0021
538.759	-0.0016
539.051	-0.0015
539.344	-0.0019
539.636	-0.0012
539.928	-0.0002
540.22	-0.0002
540.513	-0.0008
540.805	-0.0002
541.097	-0.0019
541.389	-0.0015
541.681	-0.0008
541.972	-0.0008
542.264	-0.0004
542.556	-0.0018
542.847	-0.0014
543.139	-0.0008
543.431	-0.0017
543.722	-0.0005
544.013	-0.001
544.305	-0.0022
544.596	-0.0023
544.887	-0.0012
545.178	-0.0004
545.469	-0.0024
545.76	-0.0023
546.051	-0.0007
546.342	-0.0016
546.632	-0.0017
546.923	-0.001
547.214	-0.0021
547.504	-0.0008
547.795	-0.0013
548.085	-0.0023
548.375	-0.0015
548.666	-0.0024
548.956	-0.0011
549.246	-0.001
549.536	-0.0001
549.826	-0.0007
550.116	0.0001
550.406	-0.0014
550.695	-0.0023
550.985	-0.0008
551.275	-0.0019
551.564	-0.0012
551.854	-0.0006
552.143	-0.0008
552.433	-0.0022
552.722	-0.0024
553.011	-0.0005
553.3	0.0003
553.589	0.0001
553.879	-0.0007
554.167	-0.0007
554.456	0.0006
554.745	0.0009
555.034	-0.0009
555.323	-0.0001
555.611	-0.0008
555.9	-0.0006
556.188	-0.001
556.477	0.0003
556.765	-0.0025
557.053	-0.0008
557.342	0.0002
557.63	-0.0005
557.918	0.0003
558.206	0.0005
558.494	0.0008
558.782	-0.0002
559.069	0.0016
559.357	0.0012
559.645	0.0002
559.932	0.0004
560.22	-0.0007
560.507	-0.0017
560.795	-0.0014
561.082	-0.002
561.37	-0.0002
561.657	-0.0004
561.944	-0.001
562.231	0.0003
562.518	-0.0001
562.805	-0.0006
563.092	0.0006
563.379	-0.0001
563.665	0.0009
563.952	0.0001
564.239	0.0014
564.525	0.0005
564.811	0.0019
565.098	0.0003
565.384	0.0006
565.67	0.0007
565.957	0.0013
566.243	0.0026
566.529	0.0011
566.815	0.0009
567.101	0.0022
567.387	0.0011
567.672	0.0005
567.958	0.0015
568.244	0.0008
568.529	0.0009
568.815	-0.0005
569.1	-0.0006
569.386	-0.0016
569.671	0.0003
569.956	-0
570.242	-0.0004
570.527	-0.001
570.812	-0.0001
571.097	-0.0002
571.382	-0.0005
571.666	0.0001
571.951	-0.0001
572.236	-0.0002
572.521	-0.0002
572.805	-0.0008
573.09	-0.0005
573.374	-0.0013
573.659	-0.0007
573.943	-0.0013
574.227	-0.0014
574.511	-0.0016
574.795	-0.0005
575.079	-0.0007
575.363	-0.0014
575.647	-0.0015
575.931	-0.0003
576.215	-0.0011
576.499	-0.001
576.782	-0.001
577.066	-0.0016
577.349	-0.0001
577.633	-0.0012
577.916	-0.0015
578.2	-0.0012
578.483	-0.0009
578.766	-0.0005
579.049	-0.0007
579.332	0.0004
579.615	-0.0003
579.898	-0.0005
580.181	0.0005
580.464	0.0006
580.746	-0.0002
581.029	-0.0009
581.312	-0.0011
581.594	-0.0017
581.877	-0.002
582.159	-0.0018
582.441	-0.0015
582.724	-0.0009
583.006	-0.0003
583.288	0.0001
583.57	0.0007
583.852	-0.0004
584.134	0.0001
584.416	-0.0003
584.697	-0.0002
584.979	-0.0015
585.261	-0.002
585.542	-0.002
585.824	-0.0019
586.105	-0.0016
586.387	-0.001
586.668	-0.0007
586.949	-0.0014
587.231	-0.0005
587.512	-0.0012
587.793	-0.0005
588.074	-0.0018
588.355	-0.0001
588.636	-0.0013
588.916	-0.0014
589.197	-0.0012
589.478	-0.0005
589.758	0.0002
590.039	-0.0001
590.319	0.0006
590.6	0.0006
590.88	0.0008
591.16	0.0013
591.441	0.0015
591.721	0.0001
592.001	-0.0001
592.281	-0.0014
592.561	0
592.841	-0.0015
593.12	-0.0029
593.4	-0.0025
593.68	-0.0026
593.959	-0.0018
