Data from 03 0.5 mM K2Cr2O7 0.3 mM BQDS 1 M H2SO4 5 min_Absorbance_0091.txt Node
Date: Tue Dec 14 01:14:46 EST 2021
User: kwabilab-user
Spectrometer: HDX00518
Trigger mode: 0
Integration Time (sec): 5.000000E-2
Scans to average: 50
Nonlinearity correction enabled: false
Boxcar width: 0
Storing dark spectrum: false
XAxis mode: Wavelengths
Number of Pixels in Spectrum: 2068
>>>>>Begin Spectral Data<<<<<
195.27	-0.0796
195.642	0.4235
196.014	0.0495
196.386	0.2457
196.758	-0.0248
197.129	-0.0017
197.501	-0.0055
197.872	0.0178
198.244	0.0356
198.615	0.0463
198.986	0.035
199.357	0.0643
199.728	0.0411
200.099	0.058
200.47	0.019
200.841	0.0486
201.212	0.0619
201.582	0.0421
201.953	0.037
202.323	0.0567
202.694	0.0472
203.064	0.033
203.434	0.0573
203.804	0.0351
204.174	0.0508
204.544	0.0632
204.914	0.0389
205.284	0.0562
205.653	0.0352
206.023	0.0546
206.393	0.0162
206.762	0.0531
207.131	0.0398
207.501	0.0433
207.87	0.0545
208.239	0.0636
208.608	0.0518
208.977	0.0352
209.346	0.0496
209.715	0.0355
210.083	0.032
210.452	0.0542
210.82	0.0454
211.189	0.0263
211.557	0.0665
211.925	0.0489
212.294	0.0408
212.662	0.0417
213.03	0.031
213.398	0.0746
213.766	0.0573
214.133	0.0628
214.501	0.079
214.869	0.0701
215.236	0.0307
215.604	0.0704
215.971	0.0539
216.338	0.0705
216.705	0.0899
217.072	0.0898
217.439	0.0607
217.806	0.0897
218.173	0.0817
218.54	0.0798
218.907	0.103
219.273	0.1169
219.64	0.0961
220.006	0.1196
220.373	0.1139
220.739	0.1214
221.105	0.1395
221.471	0.1375
221.837	0.1734
222.203	0.2028
222.569	0.2043
222.935	0.2186
223.3	0.2377
223.666	0.2645
224.031	0.3082
224.397	0.2965
224.762	0.3265
225.127	0.3563
225.493	0.3818
225.858	0.3881
226.223	0.4252
226.588	0.4407
226.952	0.4659
227.317	0.4863
227.682	0.5026
228.046	0.5023
228.411	0.5287
228.775	0.5362
229.14	0.5675
229.504	0.568
229.868	0.5871
230.232	0.583
230.596	0.6098
230.96	0.6283
231.324	0.6301
231.688	0.638
232.052	0.6553
232.415	0.6661
232.779	0.665
233.142	0.6749
233.505	0.6911
233.869	0.6838
234.232	0.684
234.595	0.6885
234.958	0.6858
235.321	0.6888
235.684	0.6934
236.047	0.6893
236.409	0.6681
236.772	0.6886
237.134	0.7037
237.497	0.6833
237.859	0.6986
238.222	0.6916
238.584	0.6915
238.946	0.6796
239.308	0.6857
239.67	0.6846
240.032	0.6757
240.393	0.6825
240.755	0.6764
241.117	0.682
241.478	0.6701
241.84	0.6748
242.201	0.6795
242.562	0.66
242.924	0.666
243.285	0.6635
243.646	0.6643
244.007	0.6577
244.368	0.6591
244.728	0.66
245.089	0.6589
245.45	0.656
245.81	0.6563
246.171	0.6581
246.531	0.6526
246.891	0.6427
247.252	0.6444
247.612	0.6449
247.972	0.647
248.332	0.6483
248.692	0.6431
249.051	0.6426
249.411	0.6531
249.771	0.6421
250.13	0.6465
250.49	0.6398
250.849	0.644
251.208	0.6361
251.568	0.6413
251.927	0.6456
252.286	0.6482
252.645	0.6406
253.004	0.6435
253.363	0.6342
253.721	0.6386
254.08	0.6444
254.439	0.636
254.797	0.6314
255.155	0.6282
255.514	0.636
255.872	0.6413
256.23	0.6301
256.588	0.6367
256.946	0.6351
257.304	0.6344
257.662	0.6316
258.02	0.6287
258.377	0.6336
258.735	0.6247
259.093	0.6291
259.45	0.6239
259.807	0.6255
260.165	0.6183
260.522	0.6303
260.879	0.6192
261.236	0.6235
261.593	0.6154
261.95	0.6141
262.306	0.6118
262.663	0.6107
263.02	0.6051
263.376	0.6088
263.733	0.6063
264.089	0.6032
264.445	0.5954
264.802	0.594
265.158	0.5972
265.514	0.5896
265.87	0.5878
266.226	0.591
266.581	0.5863
266.937	0.5851
267.293	0.584
267.648	0.5761
268.004	0.5805
268.359	0.5723
268.714	0.5625
269.07	0.5654
269.425	0.5582
269.78	0.557
270.135	0.5521
270.49	0.5581
270.844	0.5522
271.199	0.5464
271.554	0.548
271.908	0.5327
272.263	0.5444
272.617	0.5342
272.972	0.5315
273.326	0.5225
273.68	0.5206
274.034	0.5192
274.388	0.5155
274.742	0.5106
275.096	0.5112
275.45	0.5079
275.803	0.5043
276.157	0.5007
276.51	0.4953
276.864	0.4901
277.217	0.4897
277.571	0.4849
277.924	0.4766
278.277	0.4773
278.63	0.4721
278.983	0.4671
279.336	0.4625
279.688	0.4563
280.041	0.4494
280.394	0.451
280.746	0.4461
281.099	0.4404
281.451	0.4324
281.803	0.4297
282.156	0.4239
282.508	0.4213
282.86	0.4142
283.212	0.4101
283.564	0.4068
283.916	0.4053
284.267	0.3986
284.619	0.3941
284.971	0.3903
285.322	0.3874
285.673	0.3798
286.025	0.3756
286.376	0.3717
286.727	0.3708
287.078	0.3641
287.429	0.3609
287.78	0.3579
288.131	0.3522
288.482	0.3477
288.833	0.3418
289.183	0.3375
289.534	0.3345
289.884	0.3303
290.235	0.3267
290.585	0.32
290.935	0.3166
291.285	0.3115
291.635	0.308
291.985	0.3038
292.335	0.3011
292.685	0.298
293.035	0.2938
293.384	0.288
293.734	0.286
294.083	0.2801
294.433	0.2759
294.782	0.2737
295.131	0.2685
295.48	0.2647
295.829	0.2605
296.179	0.2578
296.527	0.2547
296.876	0.2496
297.225	0.2471
297.574	0.2418
297.922	0.2392
298.271	0.2359
298.619	0.2311
298.968	0.2284
299.316	0.2247
299.664	0.2219
300.012	0.2179
300.36	0.2154
300.708	0.2125
301.056	0.2097
301.404	0.206
301.752	0.2048
302.099	0.2004
302.447	0.1979
302.794	0.1962
303.142	0.1937
303.489	0.1912
303.836	0.1889
304.183	0.186
304.531	0.1845
304.878	0.1821
305.224	0.1815
305.571	0.1773
305.918	0.1769
306.265	0.1751
306.611	0.1733
306.958	0.1727
307.304	0.1709
307.651	0.1693
307.997	0.1683
308.343	0.1671
308.689	0.1655
309.035	0.1642
309.381	0.1635
309.727	0.1629
310.073	0.1619
310.419	0.1609
310.764	0.1602
311.11	0.1596
311.455	0.1597
311.801	0.1594
312.146	0.1584
312.491	0.1588
312.837	0.1572
313.182	0.1572
313.527	0.1579
313.872	0.1574
314.216	0.1573
314.561	0.1573
314.906	0.1568
315.251	0.1576
315.595	0.1582
315.94	0.1588
316.284	0.1586
316.628	0.1596
316.972	0.1604
317.317	0.1609
317.661	0.1607
318.005	0.1619
318.348	0.1631
318.692	0.1637
319.036	0.1641
319.38	0.1645
319.723	0.1659
320.067	0.167
320.41	0.1673
320.754	0.1691
321.097	0.1708
321.44	0.1717
321.783	0.1729
322.126	0.1744
322.469	0.1752
322.812	0.1766
323.155	0.178
323.498	0.1794
323.84	0.1814
324.183	0.1831
324.525	0.1847
324.868	0.1861
325.21	0.1869
325.552	0.1887
325.894	0.1896
326.236	0.1912
326.578	0.1931
326.92	0.1948
327.262	0.1966
327.604	0.1979
327.946	0.1999
328.287	0.2021
328.629	0.2034
328.97	0.2058
329.312	0.2062
329.653	0.2086
329.994	0.2104
330.335	0.2123
330.676	0.215
331.017	0.2163
331.358	0.2179
331.699	0.2199
332.04	0.2223
332.38	0.2233
332.721	0.2237
333.061	0.227
333.402	0.2293
333.742	0.2308
334.083	0.2322
334.423	0.2335
334.763	0.2351
335.103	0.237
335.443	0.2387
335.783	0.2404
336.123	0.2412
336.462	0.2427
336.802	0.2448
337.141	0.246
337.481	0.2464
337.82	0.249
338.16	0.25
338.499	0.2517
338.838	0.2523
339.177	0.2551
339.516	0.2561
339.855	0.2578
340.194	0.2586
340.533	0.2595
340.872	0.2605
341.21	0.263
341.549	0.2632
341.887	0.2644
342.226	0.2654
342.564	0.266
342.902	0.2669
343.24	0.2676
343.578	0.2686
343.916	0.2687
344.254	0.2694
344.592	0.2696
344.93	0.27
345.268	0.2699
345.605	0.2702
345.943	0.2709
346.28	0.2714
346.618	0.2712
346.955	0.2722
347.292	0.2711
347.629	0.2726
347.966	0.2724
348.303	0.2729
348.64	0.2735
348.977	0.2732
349.314	0.2742
349.65	0.2733
349.987	0.2726
350.324	0.2736
350.66	0.2729
350.996	0.2725
351.333	0.2722
351.669	0.2717
352.005	0.2705
352.341	0.2701
352.677	0.2694
353.013	0.2685
353.349	0.267
353.685	0.2667
354.02	0.2645
354.356	0.2635
354.691	0.263
355.027	0.2609
355.362	0.2613
355.697	0.26
356.033	0.2587
356.368	0.2578
356.703	0.2569
357.038	0.2566
357.373	0.2548
357.707	0.2534
358.042	0.2531
358.377	0.2515
358.711	0.2507
359.046	0.2499
359.38	0.249
359.715	0.2476
360.049	0.2458
360.383	0.245
360.717	0.2431
361.051	0.2418
361.385	0.2411
361.719	0.2385
362.053	0.2366
362.387	0.2356
362.72	0.2329
363.054	0.2315
363.387	0.2294
363.721	0.2277
364.054	0.2258
364.387	0.2238
364.721	0.2224
365.054	0.2199
365.387	0.2182
365.72	0.2158
366.053	0.2144
366.385	0.212
366.718	0.2106
367.051	0.2094
367.383	0.2086
367.716	0.2057
368.048	0.2052
368.381	0.2035
368.713	0.2024
369.045	0.2007
369.377	0.1988
369.709	0.1971
370.041	0.1964
370.373	0.1937
370.705	0.1922
371.037	0.1899
371.368	0.1886
371.7	0.1885
372.031	0.1853
372.363	0.1832
372.694	0.181
373.025	0.1795
373.356	0.1768
373.688	0.1747
374.019	0.1721
374.35	0.1697
374.68	0.1682
375.011	0.1661
375.342	0.1636
375.673	0.1624
376.003	0.1592
376.334	0.1577
376.664	0.156
376.995	0.154
377.325	0.1512
377.655	0.151
377.985	0.1488
378.315	0.1468
378.645	0.1461
378.975	0.1444
379.305	0.143
379.635	0.142
379.964	0.1409
380.294	0.1383
380.623	0.1379
380.953	0.1357
381.282	0.1345
381.611	0.1327
381.941	0.1308
382.27	0.1299
382.599	0.1277
382.928	0.1259
383.257	0.1253
383.585	0.1234
383.914	0.1221
384.243	0.1198
384.571	0.1178
384.9	0.1158
385.228	0.1142
385.557	0.112
385.885	0.1103
386.213	0.109
386.541	0.1072
386.869	0.1058
387.197	0.1033
387.525	0.1021
387.853	0.1002
388.181	0.0986
388.508	0.0971
388.836	0.0955
389.164	0.094
389.491	0.0929
389.818	0.0916
390.146	0.0896
390.473	0.0888
390.8	0.0878
391.127	0.0862
391.454	0.0844
391.781	0.084
392.108	0.0829
392.435	0.0811
392.761	0.0798
393.088	0.0792
393.415	0.0783
393.741	0.0777
394.067	0.0766
394.394	0.0759
394.72	0.0748
395.046	0.0738
395.372	0.0725
395.698	0.072
396.024	0.0711
396.35	0.07
396.676	0.0686
397.001	0.0678
397.327	0.0665
397.653	0.0658
397.978	0.064
398.303	0.0636
398.629	0.0616
398.954	0.0612
399.279	0.0604
399.604	0.0601
399.929	0.0591
400.254	0.0588
400.579	0.0576
400.904	0.0572
401.229	0.0562
401.553	0.0559
401.878	0.0551
402.202	0.0542
402.527	0.0534
402.851	0.0534
403.175	0.0529
403.5	0.0524
403.824	0.0512
404.148	0.0515
404.472	0.0509
404.796	0.0497
405.119	0.0497
405.443	0.0497
405.767	0.0485
406.09	0.0485
406.414	0.048
406.737	0.0476
407.061	0.048
407.384	0.0481
407.707	0.0474
408.03	0.0468
408.353	0.0474
408.676	0.0476
408.999	0.0466
409.322	0.0465
409.645	0.0467
409.968	0.0457
410.29	0.0455
410.613	0.0462
410.935	0.0457
411.258	0.0457
411.58	0.0449
411.902	0.0454
412.224	0.0444
412.546	0.0445
412.868	0.0449
413.19	0.0444
413.512	0.0454
413.834	0.0432
414.156	0.0448
414.477	0.045
414.799	0.0444
415.121	0.0449
415.442	0.0441
415.763	0.0441
416.085	0.0446
416.406	0.0443
416.727	0.0441
417.048	0.0441
417.369	0.0437
417.69	0.044
418.011	0.0432
418.331	0.0442
418.652	0.0444
418.973	0.0436
419.293	0.0441
419.614	0.0441
419.934	0.0445
420.254	0.0439
420.574	0.0442
420.895	0.0439
421.215	0.044
421.535	0.0439
421.855	0.0427
422.174	0.043
422.494	0.0431
422.814	0.0439
423.134	0.0436
423.453	0.0437
423.773	0.0438
424.092	0.0438
424.411	0.0438
424.731	0.0442
425.05	0.0431
425.369	0.0435
425.688	0.0439
426.007	0.0439
426.326	0.0437
426.644	0.0442
426.963	0.0442
427.282	0.0438
427.6	0.0432
427.919	0.044
428.237	0.0442
428.556	0.0436
428.874	0.0442
429.192	0.0448
429.51	0.0449
429.828	0.0444
430.146	0.0446
430.464	0.0432
430.782	0.0437
431.1	0.0438
431.418	0.044
431.735	0.044
432.053	0.0446
432.37	0.0439
432.688	0.0442
433.005	0.044
433.322	0.0441
433.639	0.0442
433.957	0.0446
434.274	0.0444
434.591	0.0442
434.907	0.0434
435.224	0.0439
435.541	0.0441
435.858	0.0454
436.174	0.0452
436.491	0.0442
436.807	0.0433
437.124	0.0439
437.44	0.0441
437.756	0.0442
438.072	0.0444
438.388	0.0445
438.704	0.0437
439.02	0.0442
439.336	0.0432
439.652	0.0434
439.968	0.0432
440.283	0.0431
440.599	0.0427
440.914	0.0443
441.23	0.044
441.545	0.0437
441.86	0.0428
442.175	0.0432
442.491	0.0431
442.806	0.0427
443.121	0.0431
443.435	0.0429
443.75	0.0429
444.065	0.0431
444.38	0.0431
444.694	0.0429
445.009	0.043
445.323	0.0422
445.638	0.0414
445.952	0.0426
446.266	0.0421
446.58	0.0424
446.894	0.042
447.208	0.0422
447.522	0.042
447.836	0.042
448.15	0.0411
448.464	0.0417
448.777	0.0415
449.091	0.0412
449.404	0.0412
449.718	0.041
450.031	0.0406
450.345	0.041
450.658	0.0408
450.971	0.0407
451.284	0.0403
451.597	0.0397
451.91	0.0403
452.223	0.0405
452.535	0.0395
452.848	0.0405
453.161	0.039
453.473	0.0396
453.786	0.0389
454.098	0.0391
454.411	0.0405
454.723	0.0382
455.035	0.0386
455.347	0.0381
455.659	0.0386
455.971	0.0394
456.283	0.0383
456.595	0.0379
456.907	0.0385
457.218	0.038
457.53	0.0372
457.841	0.0376
458.153	0.0374
458.464	0.0372
458.776	0.0372
459.087	0.0369
459.398	0.0373
459.709	0.0371
460.02	0.0369
460.331	0.0358
460.642	0.0356
460.953	0.0362
461.263	0.0351
461.574	0.0349
461.885	0.0351
462.195	0.0345
462.506	0.0347
462.816	0.0351
463.126	0.0349
463.437	0.0341
463.747	0.033
464.057	0.0335
464.367	0.0332
464.677	0.033
464.987	0.0328
465.296	0.033
465.606	0.0325
465.916	0.0323
466.225	0.0318
466.535	0.0324
466.844	0.0325
467.154	0.0318
467.463	0.0308
467.772	0.0311
468.081	0.031
468.39	0.0306
468.699	0.0305
469.008	0.0302
469.317	0.0296
469.626	0.0294
469.935	0.0286
470.243	0.0292
470.552	0.0282
470.86	0.0289
471.169	0.0288
471.477	0.0287
471.785	0.0288
472.093	0.0284
472.402	0.0282
472.71	0.0282
473.018	0.0272
473.326	0.0268
473.633	0.0279
473.941	0.0272
474.249	0.0263
474.556	0.0281
474.864	0.0265
475.171	0.0254
475.479	0.026
475.786	0.026
476.094	0.0247
476.401	0.0252
476.708	0.0252
477.015	0.0246
477.322	0.0253
477.629	0.0234
477.936	0.0247
478.242	0.0228
478.549	0.0234
478.856	0.0238
479.162	0.0231
479.469	0.0236
479.775	0.0236
480.081	0.022
480.388	0.0226
480.694	0.0222
481	0.0223
481.306	0.0213
481.612	0.0219
481.918	0.0215
482.224	0.0214
482.53	0.0206
482.835	0.0215
483.141	0.0205
483.446	0.0208
483.752	0.0199
484.057	0.02
484.363	0.0192
484.668	0.0201
484.973	0.0186
485.278	0.0185
485.583	0.0189
485.888	0.0186
486.193	0.0177
486.498	0.0175
486.803	0.0182
487.107	0.017
487.412	0.017
487.717	0.0174
488.021	0.0169
488.325	0.0179
488.63	0.0174
488.934	0.0175
489.238	0.0169
489.542	0.0157
489.846	0.0163
490.15	0.0168
490.454	0.0159
490.758	0.0153
491.062	0.0144
491.366	0.0144
491.669	0.0149
491.973	0.0151
492.276	0.015
492.58	0.0145
492.883	0.0131
493.186	0.0143
493.489	0.0137
493.792	0.0122
494.096	0.0126
494.399	0.0131
494.701	0.0134
495.004	0.0115
495.307	0.0119
495.61	0.0115
495.912	0.012
496.215	0.0111
496.517	0.0111
496.82	0.0117
497.122	0.0109
497.424	0.0116
497.727	0.0111
498.029	0.0102
498.331	0.0108
498.633	0.0118
498.935	0.0104
499.237	0.0098
499.538	0.0098
499.84	0.0095
500.142	0.0104
500.443	0.0097
500.745	0.0095
501.046	0.0083
501.348	0.0086
501.649	0.0077
501.95	0.0076
502.251	0.008
502.552	0.008
502.853	0.008
503.154	0.0083
503.455	0.008
503.756	0.0073
504.057	0.0083
504.357	0.007
504.658	0.0076
504.958	0.0078
505.259	0.0071
505.559	0.0067
505.859	0.0064
506.16	0.0066
506.46	0.0063
506.76	0.0064
507.06	0.0069
507.36	0.0065
507.66	0.0061
507.96	0.0066
508.259	0.0055
508.559	0.0067
508.859	0.0059
509.158	0.006
509.457	0.0047
509.757	0.0063
510.056	0.0048
510.355	0.0051
510.655	0.0051
510.954	0.0058
511.253	0.0044
511.552	0.005
511.851	0.0047
512.149	0.0035
512.448	0.0049
512.747	0.0052
513.045	0.0038
513.344	0.004
513.642	0.0038
513.941	0.004
514.239	0.0035
514.537	0.0031
514.836	0.004
515.134	0.0019
515.432	0.0044
515.73	0.0035
516.028	0.003
516.326	0.0034
516.623	0.0031
516.921	0.002
517.219	0.0022
517.516	0.003
517.814	0.0021
518.111	0.0029
518.409	0.0017
518.706	0.0019
519.003	0.0029
519.3	0.0024
519.597	0.0007
519.894	0.0026
520.191	0.0021
520.488	0.003
520.785	0.0012
521.082	0.0018
521.378	0.0012
521.675	0.0013
521.971	0.0005
522.268	0.0015
522.564	0.0011
522.861	0.0016
523.157	0.0024
523.453	0.0028
523.749	0.0012
524.045	0.0012
524.341	0.0013
524.637	0.0006
524.933	0.0008
525.229	0.0008
525.524	-0
525.82	0.0005
526.115	0.0002
526.411	0.0015
526.706	0.0013
527.002	0.0019
527.297	-0
527.592	0.0009
527.887	0.0018
528.182	0.002
528.477	0.0008
528.772	0.0014
529.067	0.0013
529.362	0.0007
529.657	0.001
529.951	0.0012
530.246	-0.0005
530.54	0.0011
530.835	-0.0004
531.129	0.0009
531.423	0.0012
531.718	0.0004
532.012	0.0005
532.306	0.0002
532.6	-0.0011
532.894	-0.0004
533.188	0.001
533.482	0.0005
533.775	-0.0004
534.069	0.0004
534.363	-0.0011
534.656	-0.0016
534.95	0.0006
535.243	-0.0003
535.536	0.0004
535.83	-0.0012
536.123	-0.0002
536.416	0.0007
536.709	-0.0004
537.002	-0.0014
537.295	-0.0007
537.588	-0.0014
537.881	-0.0009
538.173	-0.0009
538.466	-0.0008
538.759	-0.0002
539.051	0.0005
539.344	-0.0002
539.636	-0.0006
539.928	0.0009
540.22	-0.0004
540.513	-0.0002
540.805	-0
541.097	-0.001
541.389	-0.0006
541.681	0.0003
541.972	0.0006
542.264	-0.0001
542.556	0.001
542.847	0.0019
543.139	0.0012
543.431	0.0002
543.722	0.0006
544.013	0.0011
544.305	0.0001
544.596	0
544.887	0.0001
545.178	-0.0001
545.469	-0.001
545.76	0
546.051	0.0019
546.342	-0.0008
546.632	-0.0007
546.923	-0.0012
547.214	-0.0011
547.504	-0.001
547.795	-0.0003
548.085	-0.0009
548.375	-0.0007
548.666	-0.0012
548.956	-0.0003
549.246	-0.0008
549.536	-0.0006
549.826	-0.0007
550.116	-0.0008
550.406	-0.001
550.695	-0.0018
550.985	-0.0002
551.275	-0.0012
551.564	-0.0011
551.854	-0.0002
552.143	-0.0013
552.433	-0.0017
552.722	-0.002
553.011	-0.0007
553.3	0.0004
553.589	-0.0003
553.879	-0.0007
554.167	-0.001
554.456	-0.0004
554.745	0.0009
555.034	-0.0019
555.323	0.0005
555.611	-0.0004
555.9	0
556.188	-0.0007
556.477	0
556.765	-0.0003
557.053	-0.0015
557.342	-0.0003
557.63	-0.0007
557.918	0
558.206	0.0007
558.494	0.0002
558.782	0.0003
559.069	0.0016
559.357	0.0007
559.645	-0.0008
559.932	-0.0006
560.22	-0.001
560.507	-0.0011
560.795	-0.0011
561.082	-0.0019
561.37	-0.0004
561.657	-0.0009
561.944	-0.0005
562.231	-0.0003
562.518	-0
562.805	0.0002
563.092	0.0002
563.379	-0.0009
563.665	0.0007
563.952	0.0007
564.239	0.001
564.525	0.0004
564.811	0.0015
565.098	0.0001
565.384	-0.0006
565.67	0
565.957	0.001
566.243	0.0012
566.529	-0.0001
566.815	0.0013
567.101	0.0016
567.387	0.0009
567.672	0.0005
567.958	0.0016
568.244	-0.0004
568.529	0.001
568.815	-0.0002
569.1	-0.0005
569.386	-0.0007
569.671	0.0006
569.956	0
570.242	-0.0005
570.527	-0.0008
570.812	-0.0004
571.097	-0.0001
571.382	-0.0008
571.666	0.001
571.951	-0.0003
572.236	-0
572.521	0.0001
572.805	0.0007
573.09	-0.0001
573.374	-0.001
573.659	0.0003
573.943	-0.0005
574.227	-0.0004
574.511	-0.0003
574.795	0.0001
575.079	0.0003
575.363	-0.0005
575.647	0
575.931	-0.0003
576.215	-0.0006
576.499	-0.0008
576.782	-0.0009
577.066	-0.0001
577.349	0.0003
577.633	-0.0005
577.916	-0.0008
578.2	-0.0002
578.483	-0.0002
578.766	0.0005
579.049	0.0005
579.332	0.0012
579.615	0.0003
579.898	-0.0002
580.181	0.0005
580.464	0.0008
580.746	0.0005
581.029	-0.0005
581.312	-0.0008
581.594	-0.0016
581.877	-0.0009
582.159	-0.0001
582.441	-0.0004
582.724	0.0001
583.006	0.0004
583.288	0.0005
583.57	0.0009
583.852	0.0009
584.134	0.0007
584.416	0.0005
584.697	0.0003
584.979	-0.0005
585.261	-0.0015
585.542	-0.0005
585.824	-0.0007
586.105	-0.0009
586.387	-0.0009
586.668	-0.0004
586.949	0.0001
587.231	-0.001
587.512	0.0005
587.793	0.0005
588.074	-0.0007
588.355	0.0003
588.636	-0.0009
588.916	-0.0006
589.197	-0.0001
589.478	-0.0006
589.758	0.0002
590.039	-0
590.319	0.0003
590.6	0.0012
590.88	0.0015
591.16	0.0006
591.441	0.0012
591.721	0.0003
592.001	-0.0001
592.281	0.0001
592.561	0.0001
592.841	-0.0004
593.12	-0.0017
593.4	-0.001
593.68	-0.0017
593.959	-0.0007
594.239	-0.0004
594.518	0
594.798	0.0001
595.077	-0.0009
595.356	-0.0007
595.636	-0.0012
