Data from 03 0.5 mM K2Cr2O7 0.3 mM BQDS 1 M H2SO4 5 min_Absorbance_0086.txt Node
Date: Tue Dec 14 00:49:45 EST 2021
User: kwabilab-user
Spectrometer: HDX00518
Trigger mode: 0
Integration Time (sec): 5.000000E-2
Scans to average: 50
Nonlinearity correction enabled: false
Boxcar width: 0
Storing dark spectrum: false
XAxis mode: Wavelengths
Number of Pixels in Spectrum: 2068
>>>>>Begin Spectral Data<<<<<
195.27	0.1275
195.642	0.2137
196.014	0.0601
196.386	0.0586
196.758	0.0295
197.129	0.022
197.501	-0.0023
197.872	0.0299
198.244	0.0447
198.615	0.0379
198.986	0.0435
199.357	0.0506
199.728	0.0269
200.099	0.0426
200.47	0.0265
200.841	0.0357
201.212	0.0552
201.582	0.0609
201.953	0.0381
202.323	0.0605
202.694	0.0441
203.064	0.0403
203.434	0.055
203.804	0.0258
204.174	0.0511
204.544	0.0498
204.914	0.0334
205.284	0.043
205.653	0.0396
206.023	0.0555
206.393	0.0251
206.762	0.0396
207.131	0.0451
207.501	0.0333
207.87	0.0639
208.239	0.0527
208.608	0.0419
208.977	0.0257
209.346	0.0624
209.715	0.0586
210.083	0.0234
210.452	0.0268
210.82	0.0487
211.189	0.0332
211.557	0.0558
211.925	0.0277
212.294	0.0533
212.662	0.0269
213.03	0.0427
213.398	0.0881
213.766	0.0667
214.133	0.0435
214.501	0.0679
214.869	0.0389
215.236	0.0649
215.604	0.0648
215.971	0.0514
216.338	0.0711
216.705	0.0798
217.072	0.0781
217.439	0.0497
217.806	0.0793
218.173	0.0768
218.54	0.0843
218.907	0.0854
219.273	0.1016
219.64	0.085
220.006	0.1079
220.373	0.1173
220.739	0.1425
221.105	0.1279
221.471	0.1474
221.837	0.1697
222.203	0.1875
222.569	0.1979
222.935	0.2108
223.3	0.2342
223.666	0.2604
224.031	0.2944
224.397	0.3003
224.762	0.3218
225.127	0.3517
225.493	0.3858
225.858	0.4041
226.223	0.4225
226.588	0.4473
226.952	0.4649
227.317	0.4982
227.682	0.5091
228.046	0.5073
228.411	0.5263
228.775	0.5527
229.14	0.5453
229.504	0.5672
229.868	0.5996
230.232	0.5941
230.596	0.622
230.96	0.6398
231.324	0.6309
231.688	0.6568
232.052	0.6728
232.415	0.6662
232.779	0.6784
233.142	0.6743
233.505	0.6804
233.869	0.6904
234.232	0.6814
234.595	0.6783
234.958	0.6986
235.321	0.7039
235.684	0.6997
236.047	0.6881
236.409	0.7022
236.772	0.6895
237.134	0.6935
237.497	0.6932
237.859	0.6988
238.222	0.6947
238.584	0.6906
238.946	0.6899
239.308	0.6813
239.67	0.6833
240.032	0.6896
240.393	0.6774
240.755	0.6781
241.117	0.6729
241.478	0.6817
241.84	0.6783
242.201	0.6716
242.562	0.6704
242.924	0.6672
243.285	0.6687
243.646	0.6655
244.007	0.6694
244.368	0.6646
244.728	0.6683
245.089	0.6648
245.45	0.6597
245.81	0.6626
246.171	0.6596
246.531	0.6566
246.891	0.646
247.252	0.6431
247.612	0.6496
247.972	0.6501
248.332	0.6501
248.692	0.6533
249.051	0.6414
249.411	0.6572
249.771	0.6466
250.13	0.6462
250.49	0.6482
250.849	0.6456
251.208	0.6484
251.568	0.6462
251.927	0.6436
252.286	0.6497
252.645	0.6457
253.004	0.6482
253.363	0.6483
253.721	0.6431
254.08	0.6506
254.439	0.6439
254.797	0.6355
255.155	0.6417
255.514	0.6448
255.872	0.6462
256.23	0.6409
256.588	0.6443
256.946	0.6387
257.304	0.6364
257.662	0.6445
258.02	0.6352
258.377	0.6362
258.735	0.6367
259.093	0.6324
259.45	0.6337
259.807	0.6323
260.165	0.625
260.522	0.6284
260.879	0.6228
261.236	0.6203
261.593	0.6235
261.95	0.6184
262.306	0.6159
262.663	0.6109
263.02	0.6098
263.376	0.6126
263.733	0.6087
264.089	0.6085
264.445	0.5982
264.802	0.5973
265.158	0.6044
265.514	0.5962
265.87	0.5918
266.226	0.5909
266.581	0.5933
266.937	0.5874
267.293	0.5872
267.648	0.5802
268.004	0.5746
268.359	0.5734
268.714	0.57
269.07	0.569
269.425	0.5662
269.78	0.5639
270.135	0.5629
270.49	0.5589
270.844	0.5523
271.199	0.5505
271.554	0.5487
271.908	0.5449
272.263	0.5395
272.617	0.5361
272.972	0.5385
273.326	0.5299
273.68	0.5293
274.034	0.5265
274.388	0.5205
274.742	0.5209
275.096	0.5182
275.45	0.5092
275.803	0.5047
276.157	0.5069
276.51	0.4963
276.864	0.4957
277.217	0.4936
277.571	0.4915
277.924	0.4822
278.277	0.4796
278.63	0.4783
278.983	0.4672
279.336	0.4669
279.688	0.4627
280.041	0.4554
280.394	0.4544
280.746	0.4529
281.099	0.4455
281.451	0.4409
281.803	0.4346
282.156	0.4278
282.508	0.4279
282.86	0.4227
283.212	0.4163
283.564	0.4124
283.916	0.4089
284.267	0.4022
284.619	0.3987
284.971	0.3959
285.322	0.3893
285.673	0.3852
286.025	0.3813
286.376	0.3757
286.727	0.3738
287.078	0.3687
287.429	0.3614
287.78	0.3595
288.131	0.3555
288.482	0.3509
288.833	0.3426
289.183	0.3403
289.534	0.3374
289.884	0.333
290.235	0.3283
290.585	0.325
290.935	0.3204
291.285	0.3146
291.635	0.3122
291.985	0.307
292.335	0.3038
292.685	0.3003
293.035	0.297
293.384	0.2915
293.734	0.2878
294.083	0.2854
294.433	0.2781
294.782	0.2754
295.131	0.2704
295.48	0.2663
295.829	0.2635
296.179	0.2593
296.527	0.2551
296.876	0.2513
297.225	0.2476
297.574	0.2445
297.922	0.242
298.271	0.2373
298.619	0.2336
298.968	0.2299
299.316	0.227
299.664	0.2242
300.012	0.2212
300.36	0.2179
300.708	0.2149
301.056	0.2109
301.404	0.2082
301.752	0.2071
302.099	0.2027
302.447	0.2001
302.794	0.1983
303.142	0.195
303.489	0.1926
303.836	0.191
304.183	0.1887
304.531	0.1864
304.878	0.1842
305.224	0.1837
305.571	0.1793
305.918	0.1787
306.265	0.1777
306.611	0.1745
306.958	0.1737
307.304	0.1716
307.651	0.171
307.997	0.1694
308.343	0.1686
308.689	0.1664
309.035	0.1657
309.381	0.1647
309.727	0.1649
310.073	0.1634
310.419	0.1621
310.764	0.1607
311.11	0.1604
311.455	0.1606
311.801	0.1596
312.146	0.159
312.491	0.1597
312.837	0.158
313.182	0.1589
313.527	0.1595
313.872	0.1578
314.216	0.1579
314.561	0.1581
314.906	0.1576
315.251	0.1585
315.595	0.1596
315.94	0.1593
316.284	0.1597
316.628	0.1605
316.972	0.1614
317.317	0.1617
317.661	0.1618
318.005	0.1629
318.348	0.1638
318.692	0.1649
319.036	0.1652
319.38	0.1657
319.723	0.1673
320.067	0.1683
320.41	0.1692
320.754	0.1703
321.097	0.1715
321.44	0.1726
321.783	0.1744
322.126	0.1753
322.469	0.176
322.812	0.1776
323.155	0.1785
323.498	0.1807
323.84	0.1825
324.183	0.1838
324.525	0.1861
324.868	0.1879
325.21	0.1881
325.552	0.1905
325.894	0.1916
326.236	0.1926
326.578	0.1949
326.92	0.1962
327.262	0.1977
327.604	0.1999
327.946	0.2012
328.287	0.2031
328.629	0.2045
328.97	0.2069
329.312	0.2087
329.653	0.2095
329.994	0.2123
330.335	0.2131
330.676	0.2158
331.017	0.2177
331.358	0.2192
331.699	0.2216
332.04	0.2232
332.38	0.2239
332.721	0.2259
333.061	0.229
333.402	0.2306
333.742	0.2332
334.083	0.2344
334.423	0.2352
334.763	0.2371
335.103	0.2375
335.443	0.2399
335.783	0.2411
336.123	0.2427
336.462	0.2453
336.802	0.2467
337.141	0.2477
337.481	0.2477
337.82	0.2499
338.16	0.2517
338.499	0.2535
338.838	0.2547
339.177	0.257
339.516	0.2576
339.855	0.2589
340.194	0.261
340.533	0.2612
340.872	0.2625
341.21	0.2632
341.549	0.2645
341.887	0.2658
342.226	0.266
342.564	0.2674
342.902	0.2684
343.24	0.2689
343.578	0.2695
343.916	0.2703
344.254	0.2708
344.592	0.271
344.93	0.2712
345.268	0.2715
345.605	0.2722
345.943	0.2724
346.28	0.2732
346.618	0.2732
346.955	0.2734
347.292	0.2737
347.629	0.2741
347.966	0.2734
348.303	0.2733
348.64	0.2746
348.977	0.2745
349.314	0.2759
349.65	0.2745
349.987	0.2751
350.324	0.2755
350.66	0.2743
350.996	0.2731
351.333	0.2735
351.669	0.2728
352.005	0.2722
352.341	0.2712
352.677	0.2704
353.013	0.2698
353.349	0.2684
353.685	0.2682
354.02	0.2667
354.356	0.2644
354.691	0.2636
355.027	0.2627
355.362	0.2627
355.697	0.2617
356.033	0.2602
356.368	0.2592
356.703	0.2582
357.038	0.2575
357.373	0.2559
357.707	0.2557
358.042	0.2539
358.377	0.2532
358.711	0.2515
359.046	0.2507
359.38	0.2498
359.715	0.2488
360.049	0.2475
360.383	0.2463
360.717	0.2454
361.051	0.2442
361.385	0.2418
361.719	0.2394
362.053	0.2377
362.387	0.2356
362.72	0.2339
363.054	0.2325
363.387	0.2303
363.721	0.2292
364.054	0.2262
364.387	0.2242
364.721	0.2222
365.054	0.2207
365.387	0.219
365.72	0.2163
366.053	0.2151
366.385	0.2129
366.718	0.2114
367.051	0.2098
367.383	0.2089
367.716	0.2068
368.048	0.2056
368.381	0.2037
368.713	0.202
369.045	0.2019
369.377	0.1995
369.709	0.1985
370.041	0.197
370.373	0.1958
370.705	0.1932
371.037	0.1914
371.368	0.1893
371.7	0.1887
372.031	0.1862
372.363	0.1839
372.694	0.1816
373.025	0.1787
373.356	0.1768
373.688	0.1749
374.019	0.1732
374.35	0.1707
374.68	0.1693
375.011	0.1664
375.342	0.164
375.673	0.1626
376.003	0.1597
376.334	0.1588
376.664	0.156
376.995	0.1543
377.325	0.1517
377.655	0.1512
377.985	0.1491
378.315	0.1476
378.645	0.1463
378.975	0.1443
379.305	0.1431
379.635	0.1422
379.964	0.1417
380.294	0.1391
380.623	0.1382
380.953	0.1367
381.282	0.135
381.611	0.1334
381.941	0.1315
382.27	0.1302
382.599	0.1284
382.928	0.1264
383.257	0.1256
383.585	0.1234
383.914	0.1221
384.243	0.12
384.571	0.1184
384.9	0.1152
385.228	0.1144
385.557	0.1128
385.885	0.1106
386.213	0.1094
386.541	0.1071
386.869	0.1058
387.197	0.1038
387.525	0.1019
387.853	0.1
388.181	0.0992
388.508	0.0972
388.836	0.0951
389.164	0.0932
389.491	0.0927
389.818	0.0912
390.146	0.0902
390.473	0.0886
390.8	0.0877
391.127	0.0858
391.454	0.0848
391.781	0.0835
392.108	0.0826
392.435	0.0812
392.761	0.0804
393.088	0.0796
393.415	0.0786
393.741	0.0775
394.067	0.0767
394.394	0.0762
394.72	0.0742
395.046	0.0733
395.372	0.0729
395.698	0.0716
396.024	0.0709
396.35	0.0706
396.676	0.0687
397.001	0.0683
397.327	0.0667
397.653	0.0654
397.978	0.0646
398.303	0.0632
398.629	0.0622
398.954	0.0611
399.279	0.0606
399.604	0.0599
399.929	0.0592
400.254	0.058
400.579	0.0577
400.904	0.0568
401.229	0.0564
401.553	0.0556
401.878	0.055
402.202	0.0536
402.527	0.0536
402.851	0.0532
403.175	0.052
403.5	0.0517
403.824	0.0512
404.148	0.0511
404.472	0.0507
404.796	0.0503
405.119	0.0497
405.443	0.0496
405.767	0.0482
406.09	0.0489
406.414	0.0481
406.737	0.047
407.061	0.0481
407.384	0.0479
407.707	0.0473
408.03	0.047
408.353	0.0474
408.676	0.046
408.999	0.0461
409.322	0.0466
409.645	0.0457
409.968	0.0453
410.29	0.0454
410.613	0.0462
410.935	0.0458
411.258	0.0455
411.58	0.0446
411.902	0.045
412.224	0.0445
412.546	0.0446
412.868	0.0446
413.19	0.0445
413.512	0.0447
413.834	0.0431
414.156	0.0438
414.477	0.0445
414.799	0.0439
415.121	0.0451
415.442	0.044
415.763	0.0438
416.085	0.0441
416.406	0.0439
416.727	0.0443
417.048	0.0438
417.369	0.0433
417.69	0.0437
418.011	0.0433
418.331	0.0439
418.652	0.0444
418.973	0.0436
419.293	0.0441
419.614	0.0441
419.934	0.0442
420.254	0.0442
420.574	0.0438
420.895	0.0443
421.215	0.044
421.535	0.0437
421.855	0.0431
422.174	0.0433
422.494	0.0429
422.814	0.0431
423.134	0.0436
423.453	0.0441
423.773	0.0436
424.092	0.0433
424.411	0.0434
424.731	0.0435
425.05	0.0433
425.369	0.044
425.688	0.0437
426.007	0.0433
426.326	0.0436
426.644	0.0438
426.963	0.0437
427.282	0.044
427.6	0.0437
427.919	0.0434
428.237	0.0442
428.556	0.0441
428.874	0.0441
429.192	0.0445
429.51	0.0445
429.828	0.0439
430.146	0.0436
430.464	0.0437
430.782	0.044
431.1	0.0441
431.418	0.0439
431.735	0.0429
432.053	0.0436
432.37	0.0446
432.688	0.0439
433.005	0.0444
433.322	0.0442
433.639	0.0445
433.957	0.0444
434.274	0.0437
434.591	0.0444
434.907	0.0441
435.224	0.0442
435.541	0.0435
435.858	0.0445
436.174	0.0451
436.491	0.0434
436.807	0.0428
437.124	0.0433
437.44	0.0441
437.756	0.0437
438.072	0.0445
438.388	0.0441
438.704	0.0432
439.02	0.0439
439.336	0.0437
439.652	0.0433
439.968	0.0431
440.283	0.0426
440.599	0.0431
440.914	0.0437
441.23	0.0436
441.545	0.0431
441.86	0.0425
442.175	0.0421
442.491	0.0429
442.806	0.0427
443.121	0.0427
443.435	0.0424
443.75	0.0428
444.065	0.0433
444.38	0.0428
444.694	0.0427
445.009	0.0428
445.323	0.0424
445.638	0.0415
445.952	0.0428
446.266	0.0427
446.58	0.0425
446.894	0.0424
447.208	0.0423
447.522	0.0419
447.836	0.0414
448.15	0.0407
448.464	0.0416
448.777	0.0415
449.091	0.0408
449.404	0.0418
449.718	0.0414
450.031	0.0405
450.345	0.0405
450.658	0.0406
450.971	0.0406
451.284	0.0401
451.597	0.04
451.91	0.0404
452.223	0.0403
452.535	0.0396
452.848	0.0402
453.161	0.0392
453.473	0.0398
453.786	0.0393
454.098	0.0393
454.411	0.0396
454.723	0.0387
455.035	0.0387
455.347	0.0376
455.659	0.0379
455.971	0.0385
456.283	0.0378
456.595	0.0379
456.907	0.038
457.218	0.0379
457.53	0.0368
457.841	0.0371
458.153	0.0369
458.464	0.0368
458.776	0.0364
459.087	0.0368
459.398	0.0368
459.709	0.0364
460.02	0.0363
460.331	0.035
460.642	0.0356
460.953	0.0353
461.263	0.0349
461.574	0.0349
461.885	0.0343
462.195	0.0347
462.506	0.0344
462.816	0.0344
463.126	0.0347
463.437	0.0339
463.747	0.0333
464.057	0.0336
464.367	0.0331
464.677	0.0328
464.987	0.0321
465.296	0.0327
465.606	0.0318
465.916	0.0323
466.225	0.0325
466.535	0.032
466.844	0.0319
467.154	0.0319
467.463	0.0306
467.772	0.0311
468.081	0.0312
468.39	0.0304
468.699	0.0307
469.008	0.0295
469.317	0.0292
469.626	0.0282
469.935	0.029
470.243	0.0292
470.552	0.0288
470.86	0.029
471.169	0.0285
471.477	0.0284
471.785	0.0278
472.093	0.0283
472.402	0.0273
472.71	0.0285
473.018	0.0267
473.326	0.0262
473.633	0.0274
473.941	0.0267
474.249	0.0265
474.556	0.0262
474.864	0.0262
475.171	0.0258
475.479	0.0248
475.786	0.025
476.094	0.0258
476.401	0.025
476.708	0.0242
477.015	0.0252
477.322	0.025
477.629	0.0244
477.936	0.0241
478.242	0.0231
478.549	0.0228
478.856	0.0237
479.162	0.0225
479.469	0.0234
479.775	0.0227
480.081	0.0221
480.388	0.0218
480.694	0.0219
481	0.0221
481.306	0.0215
481.612	0.0208
481.918	0.021
482.224	0.0206
482.53	0.0207
482.835	0.0208
483.141	0.0199
483.446	0.0199
483.752	0.02
484.057	0.0193
484.363	0.0188
484.668	0.0191
484.973	0.0181
485.278	0.0187
485.583	0.0186
485.888	0.0181
486.193	0.017
486.498	0.0173
486.803	0.0173
487.107	0.0173
487.412	0.017
487.717	0.0169
488.021	0.0165
488.325	0.0175
488.63	0.0173
488.934	0.017
489.238	0.0158
489.542	0.0155
489.846	0.0158
490.15	0.016
490.454	0.0152
490.758	0.0145
491.062	0.0149
491.366	0.0145
491.669	0.0149
491.973	0.0155
492.276	0.0143
492.58	0.0144
492.883	0.0137
493.186	0.0134
493.489	0.014
493.792	0.0123
494.096	0.0127
494.399	0.0128
494.701	0.0127
495.004	0.0115
495.307	0.0129
495.61	0.0119
495.912	0.0123
496.215	0.011
496.517	0.0105
496.82	0.0117
497.122	0.0106
497.424	0.0115
497.727	0.0112
498.029	0.0099
498.331	0.0105
498.633	0.0107
498.935	0.0107
499.237	0.0097
499.538	0.0089
499.84	0.0094
500.142	0.0094
500.443	0.0091
500.745	0.0089
501.046	0.0088
501.348	0.0092
501.649	0.0076
501.95	0.0083
502.251	0.0075
502.552	0.0073
502.853	0.0068
503.154	0.0071
503.455	0.008
503.756	0.007
504.057	0.0077
504.357	0.0065
504.658	0.0072
504.958	0.0081
505.259	0.0072
505.559	0.0063
505.859	0.0061
506.16	0.0065
506.46	0.0068
506.76	0.0071
507.06	0.0057
507.36	0.0062
507.66	0.0064
507.96	0.0076
508.259	0.0055
508.559	0.0062
508.859	0.0056
509.158	0.0053
509.457	0.0059
509.757	0.0049
510.056	0.0049
510.355	0.0054
510.655	0.0046
510.954	0.0046
511.253	0.0041
511.552	0.0041
511.851	0.0046
512.149	0.003
512.448	0.0051
512.747	0.0035
513.045	0.0038
513.344	0.0029
513.642	0.0039
513.941	0.0037
514.239	0.0035
514.537	0.0027
514.836	0.0036
515.134	0.0015
515.432	0.0037
515.73	0.0031
516.028	0.0025
516.326	0.0032
516.623	0.0025
516.921	0.0015
517.219	0.003
517.516	0.0026
517.814	0.0021
518.111	0.0023
518.409	0.0009
518.706	0.0015
519.003	0.0021
519.3	0.002
519.597	0.0011
519.894	0.0021
520.191	0.001
520.488	0.0023
520.785	0.0018
521.082	0.0016
521.378	0.0001
521.675	0.0006
521.971	0.0005
522.268	0.0014
522.564	0.0008
522.861	0.0021
523.157	0.0012
523.453	0.0017
523.749	0.0014
524.045	0.0019
524.341	0.0014
524.637	0.0009
524.933	0.0005
525.229	0.0009
525.524	-0.0003
525.82	0.0004
526.115	-0.0003
526.411	0.0007
526.706	0.0007
527.002	0.0015
527.297	0
527.592	0.001
527.887	0.0018
528.182	0.0013
528.477	0.0016
528.772	0.0006
529.067	0.0004
529.362	0.0002
529.657	0.0003
529.951	-0
530.246	-0.0003
530.54	0.0014
530.835	0.0007
531.129	-0.0001
531.423	0.0001
531.718	0
532.012	0.0006
532.306	0
532.6	-0.0011
532.894	-0.0005
533.188	0.0002
533.482	0.0004
533.775	0.0005
534.069	-0.0003
534.363	-0.0013
534.656	-0.002
534.95	-0.0007
535.243	-0.0005
535.536	0.0002
535.83	-0.0019
536.123	0.0003
536.416	-0.0005
536.709	-0.0006
537.002	-0.0007
537.295	-0.0008
537.588	-0.0015
537.881	-0.0014
538.173	-0.0015
538.466	-0.0008
538.759	-0.0007
539.051	-0.0009
539.344	-0.0002
539.636	-0.0008
539.928	-0.0008
540.22	-0.0003
540.513	0.0005
540.805	0.0005
541.097	-0.001
541.389	-0.0007
541.681	-0.0002
541.972	0.0001
542.264	0.0005
542.556	-0.0011
542.847	0.0007
543.139	0.0004
543.431	-0.0006
543.722	0.0004
544.013	0.0009
544.305	-0.0004
544.596	-0.0015
544.887	-0.0008
545.178	0.0003
545.469	-0.0019
545.76	-0.0011
546.051	0.0005
546.342	-0.0003
546.632	-0.0008
546.923	-0.0017
547.214	-0.001
547.504	-0.0012
547.795	-0.0013
548.085	-0.002
548.375	-0.0009
548.666	-0.0013
548.956	-0.0008
549.246	-0.0008
549.536	-0.001
549.826	-0.0003
550.116	-0.0005
550.406	-0.0014
550.695	-0.0019
550.985	-0.001
551.275	-0.0011
551.564	-0.001
551.854	0.0002
552.143	-0.0011
552.433	-0.0022
552.722	-0.0024
553.011	-0.0001
553.3	-0.0003
553.589	-0.001
553.879	-0.0011
554.167	-0.0005
554.456	0.0003
554.745	0.0004
555.034	-0.0016
555.323	0.0003
555.611	-0.0006
555.9	-0.0007
556.188	-0.002
556.477	-0.0009
556.765	-0.0014
557.053	-0.0005
557.342	-0.0005
557.63	-0.0005
557.918	0.0001
558.206	-0.0001
558.494	0.0004
558.782	0.0004
559.069	0.0002
559.357	0.0002
559.645	-0.0002
559.932	0.0001
560.22	-0.0006
560.507	-0.0017
560.795	-0.0015
561.082	-0.0015
561.37	-0.0008
561.657	-0.0005
561.944	-0.0016
562.231	-0.0007
562.518	-0.0004
562.805	0.0004
563.092	0.0005
563.379	-0.0006
563.665	-0.0001
563.952	-0
564.239	0.0004
564.525	0.0006
564.811	0.0013
565.098	-0.0004
565.384	-0.0001
565.67	0.0007
565.957	0.0007
566.243	0.0023
566.529	0.0005
566.815	0.0005
567.101	0.0015
567.387	0.0007
567.672	0.0012
567.958	0.0019
568.244	0.0002
568.529	0.001
568.815	-0.0009
569.1	-0.0003
569.386	-0.001
569.671	0.0001
569.956	-0.0002
570.242	0
570.527	-0.0002
570.812	0.0004
571.097	0
571.382	-0.001
571.666	0.0005
571.951	-0.0006
572.236	-0.0003
572.521	0.0001
572.805	-0.0001
573.09	-0.0005
573.374	-0.001
573.659	-0.0002
573.943	-0.0007
574.227	-0.0001
574.511	-0.0009
574.795	-0.001
575.079	0.0001
575.363	-0.0003
575.647	-0.0005
575.931	-0.0001
576.215	-0.0012
576.499	-0.0012
576.782	-0.0014
577.066	-0.0011
577.349	0.0003
577.633	-0.0009
577.916	-0.0011
578.2	-0.0004
578.483	-0.0008
578.766	0.0001
579.049	-0
579.332	0.001
579.615	-0.0005
579.898	0.0001
580.181	0.0011
580.464	0.0005
580.746	0.0001
581.029	0.0001
581.312	-0.0007
581.594	-0.0017
581.877	-0.0013
582.159	-0.0012
582.441	-0.0011
582.724	-0.0008
583.006	0.0004
583.288	0.0003
583.57	0.0006
583.852	0
584.134	0.0009
584.416	-0.0001
584.697	-0.0001
584.979	-0.0016
585.261	-0.0015
585.542	-0.0009
585.824	-0.0006
586.105	-0.0013
586.387	-0.0011
586.668	-0.0012
586.949	-0.0002
587.231	-0.0002
587.512	-0.0006
587.793	0.0006
588.074	-0.0005
588.355	0.0003
588.636	-0.0013
588.916	-0.0012
589.197	-0.0006
589.478	-0.0008
589.758	-0.0001
590.039	0.0003
590.319	0
590.6	0.0006
590.88	0.001
591.16	0.0006
591.441	0.0007
591.721	0.0001
592.001	-0.0003
592.281	-0.0004
592.561	0.0001
592.841	-0.0011
593.12	-0.0025
593.4	-0.0011
593.68	-0.0022
593.959	-0.0014
594.239	-0.0012
