Data from 04 0.5 mM K2Cr2O7 0.3 mM BQDS 1 M H2SO4 5 min_ 29_min_gap_Absorbance_0039.txt Node
Date: Tue Dec 14 15:57:56 EST 2021
User: kwabilab-user
Spectrometer: HDX00518
Trigger mode: 0
Integration Time (sec): 5.000000E-2
Scans to average: 50
Nonlinearity correction enabled: false
Boxcar width: 0
Storing dark spectrum: false
XAxis mode: Wavelengths
Number of Pixels in Spectrum: 2068
>>>>>Begin Spectral Data<<<<<
195.27	0.1894
195.642	0.6122
196.014	0.2098
196.386	0.1907
196.758	0.0558
197.129	0.044
197.501	0.0651
197.872	0.0783
198.244	0.085
198.615	0.0856
198.986	0.0735
199.357	0.0826
199.728	0.0971
200.099	0.0961
200.47	0.0918
200.841	0.0902
201.212	0.0845
201.582	0.0912
201.953	0.0716
202.323	0.0815
202.694	0.0758
203.064	0.0637
203.434	0.0895
203.804	0.0878
204.174	0.0859
204.544	0.0958
204.914	0.0764
205.284	0.1017
205.653	0.1003
206.023	0.0998
206.393	0.0835
206.762	0.0815
207.131	0.1062
207.501	0.0897
207.87	0.1024
208.239	0.1013
208.608	0.0928
208.977	0.1031
209.346	0.1227
209.715	0.1024
210.083	0.1069
210.452	0.1041
210.82	0.0953
211.189	0.085
211.557	0.0993
211.925	0.1172
212.294	0.1131
212.662	0.0999
213.03	0.1294
213.398	0.124
213.766	0.1229
214.133	0.0788
214.501	0.1139
214.869	0.0983
215.236	0.1169
215.604	0.092
215.971	0.1091
216.338	0.1366
216.705	0.1163
217.072	0.1301
217.439	0.1441
217.806	0.1277
218.173	0.128
218.54	0.1545
218.907	0.1597
219.273	0.1723
219.64	0.1789
220.006	0.2052
220.373	0.1975
220.739	0.2139
221.105	0.2384
221.471	0.2529
221.837	0.2675
222.203	0.2927
222.569	0.3192
222.935	0.3293
223.3	0.3513
223.666	0.3865
224.031	0.4117
224.397	0.4404
224.762	0.4438
225.127	0.4926
225.493	0.5034
225.858	0.5393
226.223	0.5775
226.588	0.5915
226.952	0.6016
227.317	0.636
227.682	0.6466
228.046	0.6515
228.411	0.6891
228.775	0.7078
229.14	0.7116
229.504	0.7073
229.868	0.7297
230.232	0.7511
230.596	0.7716
230.96	0.7785
231.324	0.7563
231.688	0.7762
232.052	0.7886
232.415	0.7864
232.779	0.7936
233.142	0.8081
233.505	0.7841
233.869	0.7958
234.232	0.8131
234.595	0.786
234.958	0.7839
235.321	0.784
235.684	0.7819
236.047	0.7731
236.409	0.7653
236.772	0.7713
237.134	0.78
237.497	0.7671
237.859	0.7737
238.222	0.7697
238.584	0.7526
238.946	0.7487
239.308	0.7496
239.67	0.7464
240.032	0.7364
240.393	0.7347
240.755	0.7235
241.117	0.7219
241.478	0.7202
241.84	0.7117
242.201	0.7167
242.562	0.6994
242.924	0.6952
243.285	0.6823
243.646	0.6882
244.007	0.6844
244.368	0.6784
244.728	0.6852
245.089	0.674
245.45	0.6717
245.81	0.6698
246.171	0.6692
246.531	0.6622
246.891	0.6579
247.252	0.651
247.612	0.646
247.972	0.6479
248.332	0.6469
248.692	0.6459
249.051	0.6382
249.411	0.6391
249.771	0.6301
250.13	0.6277
250.49	0.6304
250.849	0.6296
251.208	0.6247
251.568	0.6221
251.927	0.6266
252.286	0.627
252.645	0.6199
253.004	0.6229
253.363	0.6159
253.721	0.6137
254.08	0.6115
254.439	0.612
254.797	0.606
255.155	0.6098
255.514	0.6077
255.872	0.6053
256.23	0.5993
256.588	0.6001
256.946	0.6032
257.304	0.5986
257.662	0.6002
258.02	0.5943
258.377	0.5981
258.735	0.596
259.093	0.5902
259.45	0.5898
259.807	0.589
260.165	0.5857
260.522	0.5824
260.879	0.5859
261.236	0.5809
261.593	0.5789
261.95	0.5806
262.306	0.5747
262.663	0.5743
263.02	0.5712
263.376	0.5683
263.733	0.5693
264.089	0.564
264.445	0.5672
264.802	0.566
265.158	0.5598
265.514	0.56
265.87	0.5544
266.226	0.5574
266.581	0.5602
266.937	0.5557
267.293	0.5503
267.648	0.5491
268.004	0.5417
268.359	0.5416
268.714	0.5392
269.07	0.538
269.425	0.5373
269.78	0.5336
270.135	0.5356
270.49	0.53
270.844	0.5313
271.199	0.5229
271.554	0.5225
271.908	0.5168
272.263	0.5183
272.617	0.5187
272.972	0.5128
273.326	0.5114
273.68	0.5094
274.034	0.5033
274.388	0.503
274.742	0.5023
275.096	0.5006
275.45	0.4943
275.803	0.4942
276.157	0.4906
276.51	0.4859
276.864	0.4804
277.217	0.4804
277.571	0.4786
277.924	0.472
278.277	0.4683
278.63	0.4657
278.983	0.4599
279.336	0.4593
279.688	0.456
280.041	0.4515
280.394	0.4508
280.746	0.4447
281.099	0.4399
281.451	0.4378
281.803	0.4315
282.156	0.4284
282.508	0.429
282.86	0.4252
283.212	0.422
283.564	0.4126
283.916	0.41
284.267	0.4059
284.619	0.4034
284.971	0.4017
285.322	0.3948
285.673	0.3949
286.025	0.3886
286.376	0.385
286.727	0.3818
287.078	0.3767
287.429	0.374
287.78	0.3696
288.131	0.3646
288.482	0.3599
288.833	0.3571
289.183	0.3526
289.534	0.3484
289.884	0.3437
290.235	0.3398
290.585	0.3359
290.935	0.3325
291.285	0.3291
291.635	0.3252
291.985	0.3214
292.335	0.317
292.685	0.3133
293.035	0.3096
293.384	0.3063
293.734	0.302
294.083	0.2969
294.433	0.2935
294.782	0.2895
295.131	0.2867
295.48	0.2821
295.829	0.2794
296.179	0.2741
296.527	0.2714
296.876	0.2673
297.225	0.2646
297.574	0.2597
297.922	0.2564
298.271	0.2517
298.619	0.2494
298.968	0.2458
299.316	0.2427
299.664	0.2405
300.012	0.2359
300.36	0.2327
300.708	0.2289
301.056	0.2276
301.404	0.2233
301.752	0.2201
302.099	0.2179
302.447	0.2155
302.794	0.213
303.142	0.21
303.489	0.2081
303.836	0.2043
304.183	0.2022
304.531	0.2006
304.878	0.1976
305.224	0.1964
305.571	0.1945
305.918	0.1922
306.265	0.1908
306.611	0.1888
306.958	0.1867
307.304	0.1852
307.651	0.1846
307.997	0.181
308.343	0.1808
308.689	0.1802
309.035	0.1779
309.381	0.1777
309.727	0.1756
310.073	0.1753
310.419	0.1731
310.764	0.1731
311.11	0.1727
311.455	0.1715
311.801	0.1716
312.146	0.1707
312.491	0.1693
312.837	0.1699
313.182	0.1692
313.527	0.1684
313.872	0.1683
314.216	0.1678
314.561	0.1677
314.906	0.168
315.251	0.1673
315.595	0.1674
315.94	0.1675
316.284	0.1682
316.628	0.1684
316.972	0.1674
317.317	0.1684
317.661	0.168
318.005	0.1688
318.348	0.1692
318.692	0.1705
319.036	0.1708
319.38	0.1711
319.723	0.1716
320.067	0.1717
320.41	0.1727
320.754	0.1744
321.097	0.1745
321.44	0.1745
321.783	0.1761
322.126	0.177
322.469	0.1772
322.812	0.1794
323.155	0.1808
323.498	0.1805
323.84	0.1822
324.183	0.1827
324.525	0.184
324.868	0.1852
325.21	0.1855
325.552	0.1875
325.894	0.189
326.236	0.1897
326.578	0.1903
326.92	0.1921
327.262	0.1932
327.604	0.1944
327.946	0.1958
328.287	0.1975
328.629	0.1995
328.97	0.1991
329.312	0.2007
329.653	0.2018
329.994	0.2039
330.335	0.2052
330.676	0.2066
331.017	0.2078
331.358	0.2105
331.699	0.2107
332.04	0.2128
332.38	0.2143
332.721	0.2149
333.061	0.2166
333.402	0.2177
333.742	0.2193
334.083	0.2203
334.423	0.2219
334.763	0.2232
335.103	0.224
335.443	0.2248
335.783	0.2265
336.123	0.2268
336.462	0.2281
336.802	0.2286
337.141	0.2303
337.481	0.2316
337.82	0.2332
338.16	0.2337
338.499	0.2353
338.838	0.2354
339.177	0.2373
339.516	0.2388
339.855	0.2396
340.194	0.2405
340.533	0.2422
340.872	0.2414
341.21	0.243
341.549	0.2431
341.887	0.2442
342.226	0.2456
342.564	0.2457
342.902	0.2458
343.24	0.247
343.578	0.2465
343.916	0.2479
344.254	0.2471
344.592	0.2476
344.93	0.2484
345.268	0.2484
345.605	0.2477
345.943	0.2479
346.28	0.2494
346.618	0.2491
346.955	0.2488
347.292	0.2496
347.629	0.2489
347.966	0.249
348.303	0.2491
348.64	0.25
348.977	0.2497
349.314	0.2489
349.65	0.2499
349.987	0.2489
350.324	0.2491
350.66	0.2483
350.996	0.2491
351.333	0.2473
351.669	0.2475
352.005	0.2459
352.341	0.2452
352.677	0.2449
353.013	0.2431
353.349	0.2422
353.685	0.2419
354.02	0.2406
354.356	0.2403
354.691	0.2385
355.027	0.238
355.362	0.2371
355.697	0.2364
356.033	0.2352
356.368	0.2337
356.703	0.2334
357.038	0.2329
357.373	0.2305
357.707	0.2305
358.042	0.2289
358.377	0.2282
358.711	0.2279
359.046	0.2272
359.38	0.2249
359.715	0.2238
360.049	0.2229
360.383	0.2219
360.717	0.2209
361.051	0.2187
361.385	0.2177
361.719	0.2166
362.053	0.2143
362.387	0.2125
362.72	0.2106
363.054	0.2097
363.387	0.2073
363.721	0.2056
364.054	0.2041
364.387	0.2019
364.721	0.2009
365.054	0.1988
365.387	0.1976
365.72	0.1942
366.053	0.193
366.385	0.1926
366.718	0.1907
367.051	0.1894
367.383	0.1874
367.716	0.1867
368.048	0.185
368.381	0.1835
368.713	0.1824
369.045	0.1812
369.377	0.1789
369.709	0.1787
370.041	0.1774
370.373	0.1754
370.705	0.173
371.037	0.1727
371.368	0.1705
371.7	0.1684
372.031	0.1681
372.363	0.1659
372.694	0.1632
373.025	0.1629
373.356	0.1595
373.688	0.1577
374.019	0.1563
374.35	0.1543
374.68	0.1519
375.011	0.1498
375.342	0.148
375.673	0.1463
376.003	0.1446
376.334	0.1428
376.664	0.1414
376.995	0.1391
377.325	0.1375
377.655	0.1359
377.985	0.1353
378.315	0.1329
378.645	0.1317
378.975	0.1299
379.305	0.1296
379.635	0.1281
379.964	0.1264
380.294	0.1262
380.623	0.1246
380.953	0.1229
381.282	0.1222
381.611	0.1197
381.941	0.1192
382.27	0.1176
382.599	0.1162
382.928	0.1151
383.257	0.1134
383.585	0.1119
383.914	0.1104
384.243	0.1085
384.571	0.1063
384.9	0.1051
385.228	0.1035
385.557	0.1019
385.885	0.1002
386.213	0.0992
386.541	0.0971
386.869	0.0952
387.197	0.095
387.525	0.093
387.853	0.092
388.181	0.0897
388.508	0.0888
388.836	0.0878
389.164	0.0862
389.491	0.0855
389.818	0.0842
390.146	0.0833
390.473	0.082
390.8	0.0807
391.127	0.0795
391.454	0.0787
391.781	0.0773
392.108	0.0765
392.435	0.0759
392.761	0.0753
393.088	0.0737
393.415	0.0729
393.741	0.0727
394.067	0.0716
394.394	0.0707
394.72	0.0699
395.046	0.0683
395.372	0.0673
395.698	0.0665
396.024	0.0655
396.35	0.065
396.676	0.0643
397.001	0.063
397.327	0.0632
397.653	0.0625
397.978	0.0611
398.303	0.0604
398.629	0.0593
398.954	0.0578
399.279	0.0578
399.604	0.0563
399.929	0.056
400.254	0.0553
400.579	0.0548
400.904	0.054
401.229	0.0539
401.553	0.0527
401.878	0.0529
402.202	0.0519
402.527	0.0512
402.851	0.0509
403.175	0.0503
403.5	0.0501
403.824	0.0496
404.148	0.0495
404.472	0.0491
404.796	0.0484
405.119	0.0483
405.443	0.0483
405.767	0.0476
406.09	0.0477
406.414	0.047
406.737	0.046
407.061	0.0468
407.384	0.0465
407.707	0.0459
408.03	0.0455
408.353	0.045
408.676	0.0456
408.999	0.0453
409.322	0.0457
409.645	0.045
409.968	0.0458
410.29	0.0453
410.613	0.0449
410.935	0.0452
411.258	0.0446
411.58	0.0442
411.902	0.0453
412.224	0.0443
412.546	0.0439
412.868	0.0445
413.19	0.0447
413.512	0.0448
413.834	0.0445
414.156	0.0446
414.477	0.0443
414.799	0.0447
415.121	0.0442
415.442	0.0441
415.763	0.0441
416.085	0.0441
416.406	0.0443
416.727	0.0429
417.048	0.0444
417.369	0.0437
417.69	0.0441
418.011	0.0441
418.331	0.0444
418.652	0.0436
418.973	0.0434
419.293	0.0436
419.614	0.0443
419.934	0.0435
420.254	0.044
420.574	0.0442
420.895	0.0439
421.215	0.0443
421.535	0.0434
421.855	0.0441
422.174	0.0444
422.494	0.044
422.814	0.0436
423.134	0.0443
423.453	0.0441
423.773	0.0444
424.092	0.0443
424.411	0.045
424.731	0.0447
425.05	0.0439
425.369	0.045
425.688	0.0443
426.007	0.0443
426.326	0.0439
426.644	0.0438
426.963	0.0443
427.282	0.0442
427.6	0.0438
427.919	0.0444
428.237	0.0441
428.556	0.0442
428.874	0.0441
429.192	0.0449
429.51	0.0442
429.828	0.0442
430.146	0.0444
430.464	0.0446
430.782	0.0452
431.1	0.0443
431.418	0.0451
431.735	0.0452
432.053	0.0448
432.37	0.0449
432.688	0.0447
433.005	0.0434
433.322	0.0443
433.639	0.0443
433.957	0.0442
434.274	0.0441
434.591	0.0446
434.907	0.044
435.224	0.0449
435.541	0.0445
435.858	0.0449
436.174	0.0453
436.491	0.0451
436.807	0.0442
437.124	0.0447
437.44	0.0448
437.756	0.0437
438.072	0.0439
438.388	0.0445
438.704	0.0438
439.02	0.045
439.336	0.0443
439.652	0.0438
439.968	0.0439
440.283	0.0439
440.599	0.0449
440.914	0.0445
441.23	0.0444
441.545	0.044
441.86	0.0442
442.175	0.0441
442.491	0.0444
442.806	0.0439
443.121	0.0434
443.435	0.0434
443.75	0.0436
444.065	0.0445
444.38	0.0433
444.694	0.0431
445.009	0.0442
445.323	0.0438
445.638	0.043
445.952	0.0436
446.266	0.0432
446.58	0.0432
446.894	0.0428
447.208	0.0425
447.522	0.0419
447.836	0.042
448.15	0.0423
448.464	0.0425
448.777	0.0426
449.091	0.0424
449.404	0.0425
449.718	0.0419
450.031	0.0421
450.345	0.0421
450.658	0.0425
450.971	0.043
451.284	0.0423
451.597	0.0409
451.91	0.0411
452.223	0.0421
452.535	0.0419
452.848	0.0408
453.161	0.0405
453.473	0.0402
453.786	0.0409
454.098	0.0406
454.411	0.0407
454.723	0.0408
455.035	0.04
455.347	0.0394
455.659	0.0395
455.971	0.04
456.283	0.0404
456.595	0.0398
456.907	0.039
457.218	0.0393
457.53	0.039
457.841	0.0397
458.153	0.0385
458.464	0.0384
458.776	0.0377
459.087	0.0374
459.398	0.0381
459.709	0.0375
460.02	0.0375
460.331	0.038
460.642	0.0367
460.953	0.037
461.263	0.0368
461.574	0.0371
461.885	0.0377
462.195	0.0362
462.506	0.0364
462.816	0.0362
463.126	0.0352
463.437	0.036
463.747	0.0357
464.057	0.0362
464.367	0.0353
464.677	0.0351
464.987	0.0354
465.296	0.0351
465.606	0.035
465.916	0.0344
466.225	0.0344
466.535	0.0346
466.844	0.0341
467.154	0.0334
467.463	0.0333
467.772	0.0333
468.081	0.0329
468.39	0.0328
468.699	0.0331
469.008	0.0326
469.317	0.0326
469.626	0.032
469.935	0.0321
470.243	0.0323
470.552	0.032
470.86	0.0317
471.169	0.0317
471.477	0.0322
471.785	0.0313
472.093	0.0312
472.402	0.0303
472.71	0.0302
473.018	0.0302
473.326	0.0299
473.633	0.0288
473.941	0.0293
474.249	0.0294
474.556	0.0297
474.864	0.0292
475.171	0.0291
475.479	0.0282
475.786	0.029
476.094	0.0276
476.401	0.0284
476.708	0.0274
477.015	0.0279
477.322	0.0277
477.629	0.0268
477.936	0.0269
478.242	0.0267
478.549	0.0265
478.856	0.0262
479.162	0.0259
479.469	0.0257
479.775	0.0251
480.081	0.0252
480.388	0.0262
480.694	0.0252
481	0.0243
481.306	0.0244
481.612	0.0249
481.918	0.024
482.224	0.0236
482.53	0.025
482.835	0.0243
483.141	0.0231
483.446	0.0241
483.752	0.0233
484.057	0.0233
484.363	0.0232
484.668	0.0223
484.973	0.0221
485.278	0.0219
485.583	0.0221
485.888	0.0213
486.193	0.0212
486.498	0.0221
486.803	0.0218
487.107	0.0209
487.412	0.02
487.717	0.0202
488.021	0.0204
488.325	0.0214
488.63	0.0202
488.934	0.0204
489.238	0.0189
489.542	0.0192
489.846	0.02
490.15	0.0195
490.454	0.0187
490.758	0.0186
491.062	0.0186
491.366	0.0183
491.669	0.0172
491.973	0.0188
492.276	0.0179
492.58	0.0188
492.883	0.0176
493.186	0.0173
493.489	0.0174
493.792	0.0176
494.096	0.0177
494.399	0.0172
494.701	0.0163
495.004	0.0159
495.307	0.0157
495.61	0.0151
495.912	0.016
496.215	0.0151
496.517	0.0149
496.82	0.0153
497.122	0.0166
497.424	0.0149
497.727	0.0158
498.029	0.014
498.331	0.0144
498.633	0.0138
498.935	0.0131
499.237	0.0137
499.538	0.0143
499.84	0.0139
500.142	0.0143
500.443	0.0137
500.745	0.0134
501.046	0.0131
501.348	0.0138
501.649	0.0129
501.95	0.0136
502.251	0.0136
502.552	0.013
502.853	0.0125
503.154	0.0129
503.455	0.011
503.756	0.0118
504.057	0.0113
504.357	0.0108
504.658	0.0112
504.958	0.0102
505.259	0.0118
505.559	0.0117
505.859	0.0118
506.16	0.0112
506.46	0.011
506.76	0.0099
507.06	0.0107
507.36	0.0116
507.66	0.0111
507.96	0.0095
508.259	0.0103
508.559	0.0101
508.859	0.0106
509.158	0.0094
509.457	0.0087
509.757	0.0094
510.056	0.0088
510.355	0.0106
510.655	0.0097
510.954	0.0086
511.253	0.0096
511.552	0.0097
511.851	0.0092
512.149	0.0083
512.448	0.0084
512.747	0.0083
513.045	0.0076
513.344	0.0074
513.642	0.0093
513.941	0.0088
514.239	0.0082
514.537	0.0078
514.836	0.0084
515.134	0.0092
515.432	0.0087
515.73	0.0084
516.028	0.0089
516.326	0.0074
516.623	0.0084
516.921	0.0078
517.219	0.008
517.516	0.0084
517.814	0.0081
518.111	0.0075
518.409	0.008
518.706	0.0067
519.003	0.0071
519.3	0.0073
519.597	0.0075
519.894	0.0073
520.191	0.0071
520.488	0.0072
520.785	0.0075
521.082	0.0079
521.378	0.0072
521.675	0.0073
521.971	0.0075
522.268	0.0067
522.564	0.0066
522.861	0.0068
523.157	0.0059
523.453	0.007
523.749	0.0061
524.045	0.0064
524.341	0.0066
524.637	0.0063
524.933	0.0058
525.229	0.0064
525.524	0.0068
525.82	0.0063
526.115	0.0061
526.411	0.0066
526.706	0.0065
527.002	0.0067
527.297	0.0043
527.592	0.0067
527.887	0.0063
528.182	0.0068
528.477	0.0071
528.772	0.0062
529.067	0.0057
529.362	0.0052
529.657	0.0066
529.951	0.0049
530.246	0.0047
530.54	0.0066
530.835	0.0065
531.129	0.006
531.423	0.0062
531.718	0.0049
532.012	0.0054
532.306	0.0047
532.6	0.0058
532.894	0.0044
533.188	0.0053
533.482	0.0049
533.775	0.0054
534.069	0.0062
534.363	0.0061
534.656	0.005
534.95	0.0054
535.243	0.0054
535.536	0.0043
535.83	0.0057
536.123	0.0044
536.416	0.0047
536.709	0.0062
537.002	0.0059
537.295	0.0051
537.588	0.0055
537.881	0.0053
538.173	0.0059
538.466	0.0049
538.759	0.0047
539.051	0.006
539.344	0.0031
539.636	0.004
539.928	0.0042
540.22	0.006
540.513	0.0051
540.805	0.0044
541.097	0.0048
541.389	0.0046
541.681	0.0054
541.972	0.0059
542.264	0.0059
542.556	0.0057
542.847	0.0054
543.139	0.0058
543.431	0.0049
543.722	0.0039
544.013	0.0061
544.305	0.0046
544.596	0.0045
544.887	0.004
545.178	0.0045
545.469	0.0038
545.76	0.0049
546.051	0.0045
546.342	0.0041
546.632	0.0045
546.923	0.0053
547.214	0.0049
547.504	0.0049
547.795	0.0053
548.085	0.0059
548.375	0.0048
548.666	0.0055
548.956	0.0052
549.246	0.005
549.536	0.0049
549.826	0.0065
550.116	0.0057
550.406	0.0066
550.695	0.0048
550.985	0.0054
551.275	0.005
551.564	0.0051
551.854	0.005
552.143	0.0048
552.433	0.0044
552.722	0.005
553.011	0.0059
553.3	0.0056
553.589	0.005
553.879	0.0048
554.167	0.004
554.456	0.0047
554.745	0.0048
555.034	0.0052
555.323	0.0042
555.611	0.003
555.9	0.0037
556.188	0.0042
556.477	0.0055
556.765	0.0048
557.053	0.0042
557.342	0.0049
557.63	0.0036
557.918	0.0039
558.206	0.0058
558.494	0.0049
558.782	0.006
559.069	0.0051
559.357	0.0065
559.645	0.0053
559.932	0.0063
560.22	0.0048
560.507	0.0051
560.795	0.0051
561.082	0.007
561.37	0.0062
561.657	0.0055
561.944	0.0059
562.231	0.0046
562.518	0.0052
562.805	0.0054
563.092	0.0047
563.379	0.0055
563.665	0.0047
563.952	0.0052
564.239	0.005
564.525	0.0046
564.811	0.0058
565.098	0.0066
565.384	0.0049
565.67	0.0052
565.957	0.0061
566.243	0.0058
566.529	0.0054
566.815	0.0038
567.101	0.0048
567.387	0.0064
567.672	0.0056
567.958	0.0054
568.244	0.0053
568.529	0.0059
568.815	0.004
569.1	0.0033
569.386	0.0048
569.671	0.005
569.956	0.0054
570.242	0.0055
570.527	0.0052
570.812	0.005
571.097	0.0048
571.382	0.0046
571.666	0.0055
571.951	0.005
572.236	0.0047
572.521	0.006
572.805	0.0044
573.09	0.0047
573.374	0.0033
573.659	0.0046
573.943	0.0047
574.227	0.0052
574.511	0.0044
574.795	0.0051
575.079	0.0049
575.363	0.005
575.647	0.0057
575.931	0.0055
576.215	0.0055
576.499	0.0049
576.782	0.0052
577.066	0.0057
577.349	0.0061
577.633	0.0056
577.916	0.0045
578.2	0.005
578.483	0.0049
578.766	0.0047
579.049	0.0049
579.332	0.0048
579.615	0.0048
579.898	0.004
580.181	0.0049
580.464	0.0039
580.746	0.0041
581.029	0.0052
581.312	0.0035
581.594	0.0027
581.877	0.0049
582.159	0.0049
582.441	0.0041
582.724	0.0056
583.006	0.0051
583.288	0.0054
583.57	0.0046
583.852	0.0062
584.134	0.0048
584.416	0.0042
584.697	0.005
584.979	0.0039
585.261	0.0039
585.542	0.0044
585.824	0.0045
586.105	0.0041
586.387	0.0046
586.668	0.0041
586.949	0.0042
587.231	0.0048
587.512	0.0057
587.793	0.0043
588.074	0.005
588.355	0.0047
588.636	0.0039
588.916	0.0047
589.197	0.0048
589.478	0.0052
589.758	0.0055
590.039	0.0047
590.319	0.0049
590.6	0.0041
590.88	0.0047
591.16	0.0051
591.441	0.0055
591.721	0.0053
592.001	0.0054
592.281	0.0055
592.561	0.0038
592.841	0.0037
593.12	0.0041
593.4	0.0041
593.68	0.0045
593.959	0.0051
594.239	0.0048
594.518	0.0057
594.798	0.0041
595.077	0.0042
595.356	0.0044
595.636	0.0049
595.915	0.0055
596.194	0.0058
596.473	0.0061
