Data from 04 0.5 mM K2Cr2O7 0.3 mM BQDS 1 M H2SO4 5 min_ 29_min_gap_Absorbance_0001.txt Node
Date: Tue Dec 14 12:47:56 EST 2021
User: kwabilab-user
Spectrometer: HDX00518
Trigger mode: 0
Integration Time (sec): 5.000000E-2
Scans to average: 50
Nonlinearity correction enabled: false
Boxcar width: 0
Storing dark spectrum: false
XAxis mode: Wavelengths
Number of Pixels in Spectrum: 2068
>>>>>Begin Spectral Data<<<<<
195.27	0.0601
195.642	0.1137
196.014	-0.0131
196.386	0.1097
196.758	-0.0025
197.129	0.0275
197.501	0.0243
197.872	0.0496
198.244	0.0588
198.615	0.0671
198.986	0.0647
199.357	0.0477
199.728	0.0598
200.099	0.0671
200.47	0.0685
200.841	0.0733
201.212	0.0795
201.582	0.0598
201.953	0.0584
202.323	0.0783
202.694	0.0678
203.064	0.047
203.434	0.064
203.804	0.0603
204.174	0.0637
204.544	0.0678
204.914	0.0532
205.284	0.0807
205.653	0.049
206.023	0.0693
206.393	0.0631
206.762	0.0734
207.131	0.0606
207.501	0.0619
207.87	0.065
208.239	0.0746
208.608	0.0739
208.977	0.0729
209.346	0.0685
209.715	0.0716
210.083	0.0678
210.452	0.0751
210.82	0.0552
211.189	0.0486
211.557	0.0671
211.925	0.0711
212.294	0.0809
212.662	0.0728
213.03	0.0841
213.398	0.0809
213.766	0.0766
214.133	0.0712
214.501	0.0919
214.869	0.082
215.236	0.0934
215.604	0.0801
215.971	0.1153
216.338	0.0902
216.705	0.1
217.072	0.0896
217.439	0.1075
217.806	0.0948
218.173	0.105
218.54	0.1361
218.907	0.1205
219.273	0.1268
219.64	0.1455
220.006	0.167
220.373	0.1622
220.739	0.1893
221.105	0.2171
221.471	0.2138
221.837	0.2465
222.203	0.267
222.569	0.2975
222.935	0.3282
223.3	0.3265
223.666	0.3623
224.031	0.3956
224.397	0.4245
224.762	0.4216
225.127	0.4631
225.493	0.4939
225.858	0.512
226.223	0.534
226.588	0.5604
226.952	0.5665
227.317	0.6273
227.682	0.6316
228.046	0.6194
228.411	0.6515
228.775	0.6714
229.14	0.6891
229.504	0.7026
229.868	0.721
230.232	0.7315
230.596	0.74
230.96	0.7464
231.324	0.7486
231.688	0.7602
232.052	0.7739
232.415	0.7736
232.779	0.779
233.142	0.7878
233.505	0.7722
233.869	0.7941
234.232	0.7924
234.595	0.7717
234.958	0.7813
235.321	0.7824
235.684	0.7785
236.047	0.7676
236.409	0.7672
236.772	0.7715
237.134	0.7719
237.497	0.7621
237.859	0.7702
238.222	0.7597
238.584	0.7515
238.946	0.7455
239.308	0.7449
239.67	0.7484
240.032	0.7307
240.393	0.725
240.755	0.7313
241.117	0.7272
241.478	0.7184
241.84	0.7157
242.201	0.7134
242.562	0.7029
242.924	0.6948
243.285	0.7013
243.646	0.6879
244.007	0.688
244.368	0.6891
244.728	0.6879
245.089	0.6814
245.45	0.6732
245.81	0.6727
246.171	0.6721
246.531	0.6638
246.891	0.6631
247.252	0.6544
247.612	0.6501
247.972	0.6527
248.332	0.6598
248.692	0.649
249.051	0.6495
249.411	0.6424
249.771	0.6421
250.13	0.6378
250.49	0.6395
250.849	0.6375
251.208	0.6326
251.568	0.6355
251.927	0.6317
252.286	0.6333
252.645	0.6362
253.004	0.6213
253.363	0.6201
253.721	0.6269
254.08	0.6259
254.439	0.6187
254.797	0.615
255.155	0.6163
255.514	0.6172
255.872	0.6212
256.23	0.6162
256.588	0.6161
256.946	0.6096
257.304	0.6057
257.662	0.6092
258.02	0.6035
258.377	0.6052
258.735	0.606
259.093	0.6011
259.45	0.5968
259.807	0.6008
260.165	0.5948
260.522	0.5968
260.879	0.5911
261.236	0.5929
261.593	0.5907
261.95	0.5887
262.306	0.5897
262.663	0.5868
263.02	0.5837
263.376	0.5827
263.733	0.5841
264.089	0.5806
264.445	0.578
264.802	0.5757
265.158	0.5767
265.514	0.5698
265.87	0.5703
266.226	0.57
266.581	0.5671
266.937	0.5653
267.293	0.5648
267.648	0.5625
268.004	0.5558
268.359	0.5567
268.714	0.5527
269.07	0.5523
269.425	0.5478
269.78	0.55
270.135	0.5464
270.49	0.5463
270.844	0.5463
271.199	0.5359
271.554	0.5333
271.908	0.5368
272.263	0.5337
272.617	0.528
272.972	0.529
273.326	0.5254
273.68	0.5179
274.034	0.521
274.388	0.5131
274.742	0.5144
275.096	0.513
275.45	0.5091
275.803	0.5112
276.157	0.5037
276.51	0.4991
276.864	0.4936
277.217	0.4906
277.571	0.4908
277.924	0.4834
278.277	0.483
278.63	0.4789
278.983	0.4758
279.336	0.4724
279.688	0.4681
280.041	0.4633
280.394	0.4634
280.746	0.4578
281.099	0.4515
281.451	0.4507
281.803	0.4444
282.156	0.4436
282.508	0.4401
282.86	0.4349
283.212	0.4337
283.564	0.4269
283.916	0.4236
284.267	0.4209
284.619	0.4134
284.971	0.4122
285.322	0.4092
285.673	0.4053
286.025	0.3998
286.376	0.394
286.727	0.3913
287.078	0.3885
287.429	0.3836
287.78	0.3791
288.131	0.3767
288.482	0.372
288.833	0.3679
289.183	0.3634
289.534	0.3617
289.884	0.3563
290.235	0.3513
290.585	0.3471
290.935	0.3431
291.285	0.3391
291.635	0.3355
291.985	0.3307
292.335	0.3275
292.685	0.3232
293.035	0.3185
293.384	0.3152
293.734	0.3118
294.083	0.3076
294.433	0.3042
294.782	0.2997
295.131	0.2965
295.48	0.2913
295.829	0.2878
296.179	0.2841
296.527	0.2805
296.876	0.276
297.225	0.2726
297.574	0.2689
297.922	0.2653
298.271	0.2625
298.619	0.2574
298.968	0.2544
299.316	0.2516
299.664	0.2479
300.012	0.245
300.36	0.2406
300.708	0.2376
301.056	0.2362
301.404	0.2317
301.752	0.2273
302.099	0.226
302.447	0.2227
302.794	0.2208
303.142	0.2169
303.489	0.215
303.836	0.213
304.183	0.2094
304.531	0.2077
304.878	0.2056
305.224	0.204
305.571	0.2013
305.918	0.1988
306.265	0.1975
306.611	0.1964
306.958	0.1948
307.304	0.1922
307.651	0.1906
307.997	0.1883
308.343	0.1877
308.689	0.1869
309.035	0.1844
309.381	0.1835
309.727	0.1824
310.073	0.181
310.419	0.1802
310.764	0.1795
311.11	0.1791
311.455	0.1781
311.801	0.1772
312.146	0.1769
312.491	0.1759
312.837	0.1756
313.182	0.1756
313.527	0.1745
313.872	0.1745
314.216	0.1738
314.561	0.1745
314.906	0.174
315.251	0.1738
315.595	0.1738
315.94	0.1741
316.284	0.1744
316.628	0.1747
316.972	0.174
317.317	0.1747
317.661	0.1746
318.005	0.1751
318.348	0.1754
318.692	0.1761
319.036	0.1774
319.38	0.1777
319.723	0.1777
320.067	0.1784
320.41	0.1785
320.754	0.1805
321.097	0.181
321.44	0.1812
321.783	0.1826
322.126	0.184
322.469	0.1846
322.812	0.1851
323.155	0.1866
323.498	0.1877
323.84	0.1881
324.183	0.1898
324.525	0.1906
324.868	0.1918
325.21	0.1926
325.552	0.1945
325.894	0.1949
326.236	0.1961
326.578	0.1971
326.92	0.1988
327.262	0.2001
327.604	0.2011
327.946	0.2027
328.287	0.2049
328.629	0.2061
328.97	0.2064
329.312	0.2083
329.653	0.2083
329.994	0.2114
330.335	0.212
330.676	0.2138
331.017	0.2151
331.358	0.2173
331.699	0.218
332.04	0.2191
332.38	0.2208
332.721	0.2218
333.061	0.224
333.402	0.2257
333.742	0.2263
334.083	0.2281
334.423	0.229
334.763	0.2306
335.103	0.2315
335.443	0.2335
335.783	0.234
336.123	0.2344
336.462	0.2359
336.802	0.2373
337.141	0.2386
337.481	0.2397
337.82	0.2408
338.16	0.242
338.499	0.2426
338.838	0.244
339.177	0.2451
339.516	0.2459
339.855	0.2482
340.194	0.2482
340.533	0.2486
340.872	0.2493
341.21	0.2512
341.549	0.2517
341.887	0.2526
342.226	0.2531
342.564	0.253
342.902	0.254
343.24	0.2546
343.578	0.2553
343.916	0.2551
344.254	0.2563
344.592	0.256
344.93	0.2562
345.268	0.2558
345.605	0.2568
345.943	0.2563
346.28	0.2566
346.618	0.257
346.955	0.2571
347.292	0.257
347.629	0.2574
347.966	0.2574
348.303	0.2577
348.64	0.2575
348.977	0.2572
349.314	0.2575
349.65	0.258
349.987	0.257
350.324	0.257
350.66	0.2558
350.996	0.2562
351.333	0.255
351.669	0.2552
352.005	0.2542
352.341	0.2528
352.677	0.2529
353.013	0.2511
353.349	0.2508
353.685	0.2497
354.02	0.2484
354.356	0.2483
354.691	0.2464
355.027	0.2454
355.362	0.2435
355.697	0.2428
356.033	0.242
356.368	0.2418
356.703	0.2395
357.038	0.2397
357.373	0.2387
357.707	0.2377
358.042	0.2368
358.377	0.2358
358.711	0.2358
359.046	0.2345
359.38	0.2321
359.715	0.2312
360.049	0.2293
360.383	0.2285
360.717	0.2272
361.051	0.2251
361.385	0.2243
361.719	0.2225
362.053	0.2208
362.387	0.2189
362.72	0.2177
363.054	0.2157
363.387	0.2135
363.721	0.2129
364.054	0.2096
364.387	0.2089
364.721	0.2067
365.054	0.2054
365.387	0.2035
365.72	0.2014
366.053	0.2
366.385	0.1989
366.718	0.1973
367.051	0.1954
367.383	0.1938
367.716	0.1918
368.048	0.1912
368.381	0.1896
368.713	0.1885
369.045	0.1865
369.377	0.1854
369.709	0.1844
370.041	0.1821
370.373	0.1811
370.705	0.179
371.037	0.1783
371.368	0.1764
371.7	0.1738
372.031	0.1733
372.363	0.1711
372.694	0.1688
373.025	0.1679
373.356	0.1653
373.688	0.1626
374.019	0.1614
374.35	0.1594
374.68	0.1572
375.011	0.1556
375.342	0.1531
375.673	0.1506
376.003	0.1492
376.334	0.1473
376.664	0.1462
376.995	0.1441
377.325	0.1423
377.655	0.1406
377.985	0.1395
378.315	0.138
378.645	0.1366
378.975	0.1354
379.305	0.1339
379.635	0.1324
379.964	0.131
380.294	0.1305
380.623	0.1286
380.953	0.1276
381.282	0.1259
381.611	0.1244
381.941	0.1236
382.27	0.1224
382.599	0.1206
382.928	0.1194
383.257	0.1175
383.585	0.1166
383.914	0.1144
384.243	0.1126
384.571	0.1112
384.9	0.1094
385.228	0.1073
385.557	0.106
385.885	0.1044
386.213	0.1033
386.541	0.1003
386.869	0.0993
387.197	0.0985
387.525	0.096
387.853	0.0958
388.181	0.0931
388.508	0.0921
388.836	0.0913
389.164	0.0893
389.491	0.0888
389.818	0.0882
390.146	0.0865
390.473	0.0852
390.8	0.0843
391.127	0.0825
391.454	0.0821
391.781	0.08
392.108	0.0794
392.435	0.0791
392.761	0.0786
393.088	0.077
393.415	0.0752
393.741	0.0753
394.067	0.0739
394.394	0.0734
394.72	0.0724
395.046	0.0716
395.372	0.0697
395.698	0.0691
396.024	0.0684
396.35	0.0683
396.676	0.0668
397.001	0.0669
397.327	0.0653
397.653	0.065
397.978	0.0639
398.303	0.0629
398.629	0.0613
398.954	0.0609
399.279	0.0603
399.604	0.0597
399.929	0.0585
400.254	0.0577
400.579	0.0567
400.904	0.0566
401.229	0.0561
401.553	0.0546
401.878	0.0551
402.202	0.0539
402.527	0.0536
402.851	0.0532
403.175	0.0528
403.5	0.0522
403.824	0.052
404.148	0.0515
404.472	0.0515
404.796	0.0506
405.119	0.0503
405.443	0.0504
405.767	0.0499
406.09	0.0495
406.414	0.0494
406.737	0.0483
407.061	0.0484
407.384	0.0491
407.707	0.0482
408.03	0.0472
408.353	0.0473
408.676	0.0476
408.999	0.0475
409.322	0.0478
409.645	0.0478
409.968	0.0472
410.29	0.0469
410.613	0.0469
410.935	0.0467
411.258	0.0461
411.58	0.0462
411.902	0.047
412.224	0.0463
412.546	0.0459
412.868	0.046
413.19	0.0461
413.512	0.0462
413.834	0.0464
414.156	0.0466
414.477	0.0458
414.799	0.0469
415.121	0.0454
415.442	0.0455
415.763	0.0463
416.085	0.0455
416.406	0.0461
416.727	0.0452
417.048	0.0456
417.369	0.0454
417.69	0.0459
418.011	0.046
418.331	0.0458
418.652	0.046
418.973	0.0452
419.293	0.0447
419.614	0.0455
419.934	0.0456
420.254	0.0458
420.574	0.046
420.895	0.0457
421.215	0.046
421.535	0.0456
421.855	0.0456
422.174	0.0452
422.494	0.0458
422.814	0.0462
423.134	0.0455
423.453	0.0461
423.773	0.0456
424.092	0.0459
424.411	0.0464
424.731	0.0462
425.05	0.0456
425.369	0.0461
425.688	0.0454
426.007	0.0459
426.326	0.045
426.644	0.0457
426.963	0.0461
427.282	0.046
427.6	0.0454
427.919	0.0457
428.237	0.0461
428.556	0.0461
428.874	0.0458
429.192	0.0468
429.51	0.0461
429.828	0.0462
430.146	0.0463
430.464	0.0466
430.782	0.0462
431.1	0.0453
431.418	0.0464
431.735	0.0464
432.053	0.0461
432.37	0.0465
432.688	0.0464
433.005	0.0457
433.322	0.0458
433.639	0.046
433.957	0.0462
434.274	0.0456
434.591	0.0462
434.907	0.0463
435.224	0.0466
435.541	0.0462
435.858	0.0464
436.174	0.0464
436.491	0.0463
436.807	0.0461
437.124	0.0463
437.44	0.0458
437.756	0.0454
438.072	0.0459
438.388	0.0459
438.704	0.045
439.02	0.0463
439.336	0.0452
439.652	0.0455
439.968	0.0453
440.283	0.0453
440.599	0.0467
440.914	0.0459
441.23	0.0462
441.545	0.0455
441.86	0.0455
442.175	0.0457
442.491	0.0461
442.806	0.0454
443.121	0.0456
443.435	0.0451
443.75	0.0453
444.065	0.0456
444.38	0.0446
444.694	0.0446
445.009	0.0451
445.323	0.0448
445.638	0.0452
445.952	0.0448
446.266	0.0443
446.58	0.0445
446.894	0.0445
447.208	0.0444
447.522	0.0438
447.836	0.044
448.15	0.0438
448.464	0.0436
448.777	0.0435
449.091	0.044
449.404	0.0442
449.718	0.0432
450.031	0.0436
450.345	0.0428
450.658	0.0436
450.971	0.0446
451.284	0.0433
451.597	0.0423
451.91	0.0424
452.223	0.0434
452.535	0.0431
452.848	0.0421
453.161	0.0426
453.473	0.0419
453.786	0.0422
454.098	0.0422
454.411	0.0428
454.723	0.0423
455.035	0.0414
455.347	0.0406
455.659	0.0409
455.971	0.0413
456.283	0.0413
456.595	0.0406
456.907	0.0409
457.218	0.0406
457.53	0.04
457.841	0.0401
458.153	0.0401
458.464	0.0398
458.776	0.0392
459.087	0.0395
459.398	0.0391
459.709	0.0385
460.02	0.0397
460.331	0.0393
460.642	0.0382
460.953	0.0384
461.263	0.0384
461.574	0.0383
461.885	0.0386
462.195	0.0387
462.506	0.0375
462.816	0.0376
463.126	0.0383
463.437	0.0374
463.747	0.0369
464.057	0.0377
464.367	0.037
464.677	0.0365
464.987	0.0364
465.296	0.0362
465.606	0.0366
465.916	0.0362
466.225	0.0361
466.535	0.0354
466.844	0.0354
467.154	0.0346
467.463	0.0344
467.772	0.0334
468.081	0.0336
468.39	0.0339
468.699	0.0342
469.008	0.0342
469.317	0.0337
469.626	0.0335
469.935	0.0331
470.243	0.034
470.552	0.033
470.86	0.032
471.169	0.0326
471.477	0.0325
471.785	0.0324
472.093	0.0324
472.402	0.0317
472.71	0.0308
473.018	0.0314
473.326	0.0312
473.633	0.0308
473.941	0.0312
474.249	0.0305
474.556	0.0303
474.864	0.0303
475.171	0.0296
475.479	0.0294
475.786	0.0299
476.094	0.0284
476.401	0.0292
476.708	0.0288
477.015	0.029
477.322	0.0279
477.629	0.027
477.936	0.0282
478.242	0.0279
478.549	0.0265
478.856	0.0272
479.162	0.0265
479.469	0.0275
479.775	0.026
480.081	0.0272
480.388	0.0273
480.694	0.0264
481	0.0256
481.306	0.0251
481.612	0.026
481.918	0.025
482.224	0.0244
482.53	0.0252
482.835	0.0252
483.141	0.0242
483.446	0.0243
483.752	0.0245
484.057	0.0247
484.363	0.0238
484.668	0.0233
484.973	0.0233
485.278	0.0225
485.583	0.0233
485.888	0.0236
486.193	0.0231
486.498	0.0221
486.803	0.0222
487.107	0.0219
487.412	0.0214
487.717	0.021
488.021	0.0213
488.325	0.0212
488.63	0.0206
488.934	0.0203
489.238	0.02
489.542	0.0205
489.846	0.0199
490.15	0.0202
490.454	0.0189
490.758	0.0196
491.062	0.0189
491.366	0.0195
491.669	0.018
491.973	0.0198
492.276	0.018
492.58	0.0194
492.883	0.0187
493.186	0.0172
493.489	0.0178
493.792	0.0191
494.096	0.0173
494.399	0.0175
494.701	0.0173
495.004	0.0173
495.307	0.0158
495.61	0.0163
495.912	0.0169
496.215	0.0159
496.517	0.0155
496.82	0.0155
497.122	0.016
497.424	0.0165
497.727	0.016
498.029	0.015
498.331	0.0152
498.633	0.0151
498.935	0.014
499.237	0.0151
499.538	0.0145
499.84	0.0147
500.142	0.0145
500.443	0.0135
500.745	0.0142
501.046	0.0137
501.348	0.0139
501.649	0.0136
501.95	0.0135
502.251	0.0129
502.552	0.0131
502.853	0.0123
503.154	0.012
503.455	0.0117
503.756	0.0117
504.057	0.0123
504.357	0.0119
504.658	0.0127
504.958	0.0125
505.259	0.0118
505.559	0.0117
505.859	0.0125
506.16	0.0121
506.46	0.0114
506.76	0.0109
507.06	0.0116
507.36	0.0115
507.66	0.0116
507.96	0.0102
508.259	0.0111
508.559	0.0109
508.859	0.0106
509.158	0.0105
509.457	0.0101
509.757	0.0098
510.056	0.0104
510.355	0.0109
510.655	0.0094
510.954	0.0088
511.253	0.0101
511.552	0.0099
511.851	0.0093
512.149	0.0091
512.448	0.008
512.747	0.0088
513.045	0.0091
513.344	0.0078
513.642	0.0086
513.941	0.0086
514.239	0.0076
514.537	0.0078
514.836	0.0086
515.134	0.0099
515.432	0.0086
515.73	0.0091
516.028	0.0094
516.326	0.0081
516.623	0.008
516.921	0.0075
517.219	0.009
517.516	0.0078
517.814	0.0084
518.111	0.0078
518.409	0.0075
518.706	0.0066
519.003	0.0075
519.3	0.0068
519.597	0.0064
519.894	0.0068
520.191	0.0066
520.488	0.0077
520.785	0.0073
521.082	0.007
521.378	0.0075
521.675	0.0081
521.971	0.0075
522.268	0.0064
522.564	0.0063
522.861	0.0072
523.157	0.0054
523.453	0.0057
523.749	0.0053
524.045	0.0057
524.341	0.0065
524.637	0.0048
524.933	0.0056
525.229	0.0058
525.524	0.0069
525.82	0.0062
526.115	0.0058
526.411	0.0051
526.706	0.0057
527.002	0.0064
527.297	0.0048
527.592	0.0051
527.887	0.0066
528.182	0.0057
528.477	0.0063
528.772	0.0057
529.067	0.0058
529.362	0.0057
529.657	0.0049
529.951	0.0054
530.246	0.0048
530.54	0.0064
530.835	0.0054
531.129	0.0049
531.423	0.0065
531.718	0.0048
532.012	0.0051
532.306	0.0048
532.6	0.0055
532.894	0.0044
533.188	0.0047
533.482	0.0051
533.775	0.0051
534.069	0.0049
534.363	0.0044
534.656	0.0049
534.95	0.0048
535.243	0.0056
535.536	0.004
535.83	0.0046
536.123	0.0043
536.416	0.0052
536.709	0.0044
537.002	0.0043
537.295	0.0051
537.588	0.0044
537.881	0.0055
538.173	0.0052
538.466	0.0046
538.759	0.0051
539.051	0.0054
539.344	0.0035
539.636	0.0047
539.928	0.0037
540.22	0.0051
540.513	0.0037
540.805	0.0045
541.097	0.0045
541.389	0.0047
541.681	0.0053
541.972	0.0059
542.264	0.0049
542.556	0.0048
542.847	0.0049
543.139	0.0044
543.431	0.004
543.722	0.0039
544.013	0.0038
544.305	0.0038
544.596	0.0045
544.887	0.0044
545.178	0.0032
545.469	0.0028
545.76	0.0049
546.051	0.0041
546.342	0.0036
546.632	0.0032
546.923	0.0042
547.214	0.0049
547.504	0.0052
547.795	0.0057
548.085	0.0047
548.375	0.0048
548.666	0.0057
548.956	0.0046
549.246	0.0042
549.536	0.0043
549.826	0.0055
550.116	0.0049
550.406	0.006
550.695	0.0036
550.985	0.0042
551.275	0.0043
551.564	0.0052
551.854	0.0052
552.143	0.005
552.433	0.0033
552.722	0.0042
553.011	0.005
553.3	0.0051
553.589	0.0037
553.879	0.0042
554.167	0.0036
554.456	0.0047
554.745	0.0038
555.034	0.0047
555.323	0.0035
555.611	0.0036
555.9	0.0033
556.188	0.0028
556.477	0.0044
556.765	0.0044
557.053	0.0029
557.342	0.0044
557.63	0.0032
557.918	0.0036
558.206	0.004
558.494	0.0042
558.782	0.0058
559.069	0.0041
559.357	0.0064
559.645	0.0063
559.932	0.0056
560.22	0.0042
560.507	0.0053
560.795	0.0054
561.082	0.0057
561.37	0.0053
561.657	0.0054
561.944	0.005
562.231	0.0039
562.518	0.0058
562.805	0.0061
563.092	0.005
563.379	0.0053
563.665	0.0042
563.952	0.0041
564.239	0.0048
564.525	0.0043
564.811	0.0052
565.098	0.0061
565.384	0.005
565.67	0.0055
565.957	0.0054
566.243	0.0062
566.529	0.0049
566.815	0.0043
567.101	0.0046
567.387	0.0057
567.672	0.0052
567.958	0.0043
568.244	0.0043
568.529	0.0053
568.815	0.005
569.1	0.0041
569.386	0.0051
569.671	0.0041
569.956	0.0048
570.242	0.0051
570.527	0.0058
570.812	0.0044
571.097	0.0048
571.382	0.0039
571.666	0.005
571.951	0.0038
572.236	0.0045
572.521	0.0047
572.805	0.0045
573.09	0.0042
573.374	0.0039
573.659	0.0043
573.943	0.0042
574.227	0.0048
574.511	0.0038
574.795	0.0044
575.079	0.0053
575.363	0.0055
575.647	0.0049
575.931	0.0049
576.215	0.0057
576.499	0.0053
576.782	0.0044
577.066	0.0058
577.349	0.0053
577.633	0.0057
577.916	0.0048
578.2	0.0045
578.483	0.0038
578.766	0.0037
579.049	0.0048
579.332	0.0044
579.615	0.0051
579.898	0.0045
580.181	0.0044
580.464	0.0034
580.746	0.0044
581.029	0.0044
581.312	0.0038
581.594	0.0038
581.877	0.0035
582.159	0.0044
582.441	0.0036
582.724	0.0042
583.006	0.0043
583.288	0.0042
583.57	0.0036
583.852	0.0046
584.134	0.0048
584.416	0.005
584.697	0.0046
584.979	0.0047
585.261	0.004
585.542	0.0044
585.824	0.0037
586.105	0.0033
586.387	0.0035
586.668	0.0039
586.949	0.0035
587.231	0.0045
587.512	0.0049
587.793	0.0041
588.074	0.005
588.355	0.0036
588.636	0.0041
588.916	0.0039
589.197	0.0041
589.478	0.0046
589.758	0.0044
590.039	0.0045
590.319	0.0046
590.6	0.0038
590.88	0.0046
591.16	0.0042
591.441	0.0047
591.721	0.005
592.001	0.0051
592.281	0.0046
592.561	0.0041
592.841	0.0031
593.12	0.0036
593.4	0.0036
593.68	0.0039
593.959	0.0045
594.239	0.0036
594.518	0.0043
594.798	0.0036
595.077	0.0046
595.356	0.0037
595.636	0.0039
595.915	0.0046
596.194	0.0048
596.473	0.0052
