Data from 04 0.5 mM K2Cr2O7 0.3 mM BQDS 1 M H2SO4 5 min_ 29_min_gap_Absorbance_0020.txt Node
Date: Tue Dec 14 14:22:55 EST 2021
User: kwabilab-user
Spectrometer: HDX00518
Trigger mode: 0
Integration Time (sec): 5.000000E-2
Scans to average: 50
Nonlinearity correction enabled: false
Boxcar width: 0
Storing dark spectrum: false
XAxis mode: Wavelengths
Number of Pixels in Spectrum: 2068
>>>>>Begin Spectral Data<<<<<
195.27	0.3163
195.642	0.3321
196.014	0.3375
196.386	0.6762
196.758	0.0868
197.129	0.0682
197.501	0.072
197.872	0.0648
198.244	0.0854
198.615	0.0872
198.986	0.0867
199.357	0.1001
199.728	0.0996
200.099	0.1034
200.47	0.0638
200.841	0.1039
201.212	0.0876
201.582	0.082
201.953	0.0953
202.323	0.0941
202.694	0.0796
203.064	0.0787
203.434	0.0981
203.804	0.0886
204.174	0.0956
204.544	0.0924
204.914	0.0917
205.284	0.1138
205.653	0.0991
206.023	0.0993
206.393	0.089
206.762	0.0677
207.131	0.0948
207.501	0.0919
207.87	0.0822
208.239	0.102
208.608	0.1168
208.977	0.0983
209.346	0.1179
209.715	0.1071
210.083	0.1025
210.452	0.1025
210.82	0.0983
211.189	0.0819
211.557	0.0841
211.925	0.1126
212.294	0.1038
212.662	0.1202
213.03	0.1275
213.398	0.1182
213.766	0.1166
214.133	0.0849
214.501	0.1142
214.869	0.1183
215.236	0.1085
215.604	0.0966
215.971	0.1449
216.338	0.1346
216.705	0.1074
217.072	0.1104
217.439	0.1399
217.806	0.1233
218.173	0.1393
218.54	0.1453
218.907	0.1524
219.273	0.1632
219.64	0.1655
220.006	0.2058
220.373	0.1919
220.739	0.2171
221.105	0.2346
221.471	0.2517
221.837	0.2734
222.203	0.3243
222.569	0.2965
222.935	0.35
223.3	0.3568
223.666	0.3737
224.031	0.4043
224.397	0.4171
224.762	0.4525
225.127	0.4958
225.493	0.5093
225.858	0.5438
226.223	0.5753
226.588	0.5709
226.952	0.5982
227.317	0.6377
227.682	0.6525
228.046	0.6541
228.411	0.6878
228.775	0.7
229.14	0.7085
229.504	0.7124
229.868	0.7545
230.232	0.7364
230.596	0.7439
230.96	0.7725
231.324	0.7684
231.688	0.7765
232.052	0.8017
232.415	0.7864
232.779	0.7867
233.142	0.8042
233.505	0.7898
233.869	0.8036
234.232	0.7942
234.595	0.7928
234.958	0.7993
235.321	0.8022
235.684	0.7961
236.047	0.7857
236.409	0.773
236.772	0.7703
237.134	0.7767
237.497	0.7675
237.859	0.7721
238.222	0.7683
238.584	0.7583
238.946	0.7487
239.308	0.7559
239.67	0.7444
240.032	0.7448
240.393	0.7413
240.755	0.7335
241.117	0.7308
241.478	0.7199
241.84	0.7199
242.201	0.718
242.562	0.7059
242.924	0.7061
243.285	0.6945
243.646	0.6871
244.007	0.6867
244.368	0.6853
244.728	0.6887
245.089	0.6792
245.45	0.6736
245.81	0.6744
246.171	0.6686
246.531	0.6636
246.891	0.6577
247.252	0.6572
247.612	0.652
247.972	0.6576
248.332	0.6532
248.692	0.6497
249.051	0.6489
249.411	0.6467
249.771	0.6382
250.13	0.6345
250.49	0.6373
250.849	0.6364
251.208	0.6285
251.568	0.6334
251.927	0.6171
252.286	0.6257
252.645	0.6276
253.004	0.6232
253.363	0.6226
253.721	0.6216
254.08	0.6222
254.439	0.6224
254.797	0.6164
255.155	0.6129
255.514	0.614
255.872	0.6125
256.23	0.6107
256.588	0.6129
256.946	0.6066
257.304	0.6049
257.662	0.6029
258.02	0.6011
258.377	0.6038
258.735	0.6015
259.093	0.5971
259.45	0.5912
259.807	0.5914
260.165	0.5953
260.522	0.5924
260.879	0.5892
261.236	0.5859
261.593	0.5813
261.95	0.5821
262.306	0.5847
262.663	0.5794
263.02	0.5801
263.376	0.5766
263.733	0.5733
264.089	0.5741
264.445	0.5745
264.802	0.5726
265.158	0.5672
265.514	0.5666
265.87	0.5623
266.226	0.5663
266.581	0.5664
266.937	0.5621
267.293	0.5547
267.648	0.5559
268.004	0.5503
268.359	0.5574
268.714	0.5525
269.07	0.5469
269.425	0.5462
269.78	0.5434
270.135	0.5397
270.49	0.5366
270.844	0.5353
271.199	0.5336
271.554	0.5331
271.908	0.5268
272.263	0.5267
272.617	0.5245
272.972	0.5204
273.326	0.516
273.68	0.512
274.034	0.5132
274.388	0.5093
274.742	0.5091
275.096	0.5063
275.45	0.5037
275.803	0.4989
276.157	0.4967
276.51	0.493
276.864	0.4873
277.217	0.4865
277.571	0.4854
277.924	0.4799
278.277	0.477
278.63	0.4713
278.983	0.4675
279.336	0.4641
279.688	0.4636
280.041	0.4589
280.394	0.4544
280.746	0.4517
281.099	0.4469
281.451	0.4424
281.803	0.4373
282.156	0.4343
282.508	0.4333
282.86	0.4273
283.212	0.4254
283.564	0.4195
283.916	0.4147
284.267	0.4133
284.619	0.4088
284.971	0.4062
285.322	0.4024
285.673	0.397
286.025	0.3934
286.376	0.3901
286.727	0.3856
287.078	0.3813
287.429	0.3787
287.78	0.3749
288.131	0.3696
288.482	0.3638
288.833	0.3617
289.183	0.3565
289.534	0.3521
289.884	0.3493
290.235	0.3453
290.585	0.3396
290.935	0.3361
291.285	0.3317
291.635	0.3287
291.985	0.3257
292.335	0.3209
292.685	0.3168
293.035	0.3141
293.384	0.3079
293.734	0.3048
294.083	0.3015
294.433	0.297
294.782	0.2938
295.131	0.29
295.48	0.2855
295.829	0.2813
296.179	0.2784
296.527	0.275
296.876	0.2703
297.225	0.2671
297.574	0.2631
297.922	0.2601
298.271	0.2575
298.619	0.2521
298.968	0.2491
299.316	0.2463
299.664	0.2429
300.012	0.2394
300.36	0.2354
300.708	0.2318
301.056	0.2306
301.404	0.2263
301.752	0.222
302.099	0.2207
302.447	0.2177
302.794	0.215
303.142	0.2127
303.489	0.2109
303.836	0.2068
304.183	0.2048
304.531	0.203
304.878	0.2004
305.224	0.1982
305.571	0.1973
305.918	0.195
306.265	0.1929
306.611	0.1914
306.958	0.1892
307.304	0.1871
307.651	0.186
307.997	0.1835
308.343	0.1832
308.689	0.1822
309.035	0.1804
309.381	0.1792
309.727	0.1775
310.073	0.1763
310.419	0.1758
310.764	0.1751
311.11	0.1748
311.455	0.1736
311.801	0.1735
312.146	0.1725
312.491	0.1717
312.837	0.1717
313.182	0.1714
313.527	0.1708
313.872	0.171
314.216	0.17
314.561	0.1694
314.906	0.1701
315.251	0.1695
315.595	0.1702
315.94	0.1691
316.284	0.1698
316.628	0.1711
316.972	0.1704
317.317	0.1704
317.661	0.1707
318.005	0.1709
318.348	0.1713
318.692	0.1726
319.036	0.1737
319.38	0.1738
319.723	0.1739
320.067	0.1742
320.41	0.1748
320.754	0.1765
321.097	0.1774
321.44	0.1773
321.783	0.1786
322.126	0.1795
322.469	0.1803
322.812	0.1819
323.155	0.1834
323.498	0.1838
323.84	0.1848
324.183	0.1857
324.525	0.1867
324.868	0.1882
325.21	0.1888
325.552	0.1905
325.894	0.1911
326.236	0.1925
326.578	0.1934
326.92	0.1954
327.262	0.1958
327.604	0.1975
327.946	0.1984
328.287	0.2004
328.629	0.2019
328.97	0.2029
329.312	0.204
329.653	0.2047
329.994	0.2068
330.335	0.2078
330.676	0.2103
331.017	0.2112
331.358	0.2131
331.699	0.2146
332.04	0.2158
332.38	0.217
332.721	0.2179
333.061	0.2203
333.402	0.2211
333.742	0.2228
334.083	0.2232
334.423	0.225
334.763	0.2267
335.103	0.2278
335.443	0.2291
335.783	0.2301
336.123	0.2299
336.462	0.2316
336.802	0.2324
337.141	0.2335
337.481	0.2352
337.82	0.237
338.16	0.238
338.499	0.239
338.838	0.2392
339.177	0.24
339.516	0.2422
339.855	0.2431
340.194	0.2437
340.533	0.2453
340.872	0.2454
341.21	0.2462
341.549	0.2481
341.887	0.2478
342.226	0.2485
342.564	0.2493
342.902	0.2496
343.24	0.2503
343.578	0.2509
343.916	0.2518
344.254	0.2517
344.592	0.2514
344.93	0.2514
345.268	0.2522
345.605	0.252
345.943	0.2523
346.28	0.2523
346.618	0.2529
346.955	0.2535
347.292	0.2527
347.629	0.2528
347.966	0.2531
348.303	0.2534
348.64	0.253
348.977	0.2535
349.314	0.2536
349.65	0.2536
349.987	0.2525
350.324	0.2529
350.66	0.2523
350.996	0.2523
351.333	0.2507
351.669	0.2518
352.005	0.2502
352.341	0.2499
352.677	0.249
353.013	0.2471
353.349	0.2462
353.685	0.2455
354.02	0.2446
354.356	0.2444
354.691	0.2418
355.027	0.2417
355.362	0.2401
355.697	0.239
356.033	0.2389
356.368	0.2381
356.703	0.2365
357.038	0.2367
357.373	0.2342
357.707	0.2336
358.042	0.2326
358.377	0.2322
358.711	0.2316
359.046	0.2309
359.38	0.2291
359.715	0.228
360.049	0.2265
360.383	0.2247
360.717	0.2234
361.051	0.2231
361.385	0.2213
361.719	0.2189
362.053	0.2178
362.387	0.2154
362.72	0.2144
363.054	0.2124
363.387	0.2102
363.721	0.2093
364.054	0.2076
364.387	0.205
364.721	0.2041
365.054	0.2022
365.387	0.2005
365.72	0.1981
366.053	0.1968
366.385	0.1959
366.718	0.1949
367.051	0.1932
367.383	0.1913
367.716	0.1895
368.048	0.1881
368.381	0.1862
368.713	0.186
369.045	0.184
369.377	0.1825
369.709	0.1809
370.041	0.1802
370.373	0.1786
370.705	0.1763
371.037	0.1757
371.368	0.1736
371.7	0.1713
372.031	0.1708
372.363	0.1688
372.694	0.1665
373.025	0.1652
373.356	0.1629
373.688	0.1606
374.019	0.1582
374.35	0.157
374.68	0.1548
375.011	0.1526
375.342	0.1505
375.673	0.1485
376.003	0.1471
376.334	0.1454
376.664	0.1442
376.995	0.1418
377.325	0.1405
377.655	0.1391
377.985	0.1373
378.315	0.1353
378.645	0.1341
378.975	0.1331
379.305	0.132
379.635	0.1305
379.964	0.1289
380.294	0.1285
380.623	0.1268
380.953	0.1248
381.282	0.1236
381.611	0.1222
381.941	0.1217
382.27	0.1205
382.599	0.1195
382.928	0.117
383.257	0.1156
383.585	0.1141
383.914	0.1133
384.243	0.111
384.571	0.1092
384.9	0.1072
385.228	0.1063
385.557	0.1039
385.885	0.1026
386.213	0.1018
386.541	0.0993
386.869	0.098
387.197	0.0963
387.525	0.0947
387.853	0.0935
388.181	0.0919
388.508	0.0909
388.836	0.0893
389.164	0.0885
389.491	0.0872
389.818	0.0862
390.146	0.0851
390.473	0.0835
390.8	0.0825
391.127	0.0809
391.454	0.0806
391.781	0.0785
392.108	0.0782
392.435	0.0774
392.761	0.0766
393.088	0.0758
393.415	0.0743
393.741	0.0738
394.067	0.0733
394.394	0.0726
394.72	0.0715
395.046	0.0702
395.372	0.0694
395.698	0.0683
396.024	0.0672
396.35	0.0668
396.676	0.0659
397.001	0.0652
397.327	0.0646
397.653	0.064
397.978	0.0625
398.303	0.0621
398.629	0.0612
398.954	0.06
399.279	0.0592
399.604	0.0588
399.929	0.0578
400.254	0.057
400.579	0.0559
400.904	0.0555
401.229	0.0556
401.553	0.0541
401.878	0.0542
402.202	0.0537
402.527	0.0529
402.851	0.0526
403.175	0.0519
403.5	0.0517
403.824	0.0512
404.148	0.0516
404.472	0.0508
404.796	0.0502
405.119	0.0495
405.443	0.0495
405.767	0.0495
406.09	0.0482
406.414	0.0486
406.737	0.0475
407.061	0.0478
407.384	0.0478
407.707	0.0475
408.03	0.0471
408.353	0.0468
408.676	0.0473
408.999	0.0468
409.322	0.0471
409.645	0.047
409.968	0.0461
410.29	0.0465
410.613	0.0462
410.935	0.0457
411.258	0.046
411.58	0.046
411.902	0.0458
412.224	0.0453
412.546	0.0451
412.868	0.0457
413.19	0.0456
413.512	0.0457
413.834	0.0457
414.156	0.0462
414.477	0.0455
414.799	0.0463
415.121	0.0453
415.442	0.0454
415.763	0.0456
416.085	0.0456
416.406	0.0456
416.727	0.0445
417.048	0.0451
417.369	0.0449
417.69	0.0458
418.011	0.0452
418.331	0.0458
418.652	0.0456
418.973	0.0447
419.293	0.0444
419.614	0.0449
419.934	0.0448
420.254	0.0451
420.574	0.0454
420.895	0.0456
421.215	0.0453
421.535	0.0453
421.855	0.045
422.174	0.0443
422.494	0.0453
422.814	0.045
423.134	0.0458
423.453	0.0452
423.773	0.045
424.092	0.0454
424.411	0.0459
424.731	0.0463
425.05	0.0452
425.369	0.046
425.688	0.0449
426.007	0.0455
426.326	0.0449
426.644	0.0451
426.963	0.0454
427.282	0.0452
427.6	0.0448
427.919	0.0451
428.237	0.0455
428.556	0.0457
428.874	0.0452
429.192	0.0463
429.51	0.0462
429.828	0.0455
430.146	0.0451
430.464	0.0459
430.782	0.0458
431.1	0.0451
431.418	0.0459
431.735	0.0465
432.053	0.0462
432.37	0.0457
432.688	0.0464
433.005	0.045
433.322	0.0452
433.639	0.0457
433.957	0.0458
434.274	0.0457
434.591	0.0454
434.907	0.0457
435.224	0.0459
435.541	0.0452
435.858	0.046
436.174	0.046
436.491	0.0461
436.807	0.046
437.124	0.046
437.44	0.0453
437.756	0.0453
438.072	0.0453
438.388	0.0454
438.704	0.0449
439.02	0.046
439.336	0.0452
439.652	0.0448
439.968	0.0451
440.283	0.0454
440.599	0.0462
440.914	0.0456
441.23	0.0458
441.545	0.0455
441.86	0.045
442.175	0.0454
442.491	0.0453
442.806	0.0451
443.121	0.0446
443.435	0.0445
443.75	0.045
444.065	0.0453
444.38	0.0447
444.694	0.0441
445.009	0.0451
445.323	0.0446
445.638	0.0446
445.952	0.0447
446.266	0.0437
446.58	0.0443
446.894	0.0442
447.208	0.0441
447.522	0.0429
447.836	0.0434
448.15	0.0439
448.464	0.0433
448.777	0.0429
449.091	0.0435
449.404	0.0433
449.718	0.0431
450.031	0.0435
450.345	0.0433
450.658	0.0431
450.971	0.044
451.284	0.043
451.597	0.0425
451.91	0.0422
452.223	0.043
452.535	0.0426
452.848	0.0416
453.161	0.0422
453.473	0.0418
453.786	0.0417
454.098	0.0418
454.411	0.0412
454.723	0.0421
455.035	0.0416
455.347	0.0409
455.659	0.0411
455.971	0.041
456.283	0.0411
456.595	0.0407
456.907	0.0406
457.218	0.0402
457.53	0.04
457.841	0.0395
458.153	0.0397
458.464	0.0394
458.776	0.039
459.087	0.0395
459.398	0.0387
459.709	0.0384
460.02	0.0397
460.331	0.0395
460.642	0.0384
460.953	0.0388
461.263	0.0382
461.574	0.0383
461.885	0.0384
462.195	0.0382
462.506	0.0367
462.816	0.0374
463.126	0.0374
463.437	0.0367
463.747	0.0366
464.057	0.0376
464.367	0.0361
464.677	0.0358
464.987	0.0365
465.296	0.0364
465.606	0.036
465.916	0.0365
466.225	0.0357
466.535	0.0353
466.844	0.0357
467.154	0.035
467.463	0.0338
467.772	0.0343
468.081	0.0334
468.39	0.0338
468.699	0.0333
469.008	0.033
469.317	0.0339
469.626	0.033
469.935	0.033
470.243	0.034
470.552	0.0336
470.86	0.0324
471.169	0.0337
471.477	0.0328
471.785	0.032
472.093	0.0322
472.402	0.031
472.71	0.031
473.018	0.0312
473.326	0.0306
473.633	0.0302
473.941	0.0305
474.249	0.0299
474.556	0.0308
474.864	0.031
475.171	0.0302
475.479	0.0294
475.786	0.0293
476.094	0.0285
476.401	0.0292
476.708	0.0282
477.015	0.0292
477.322	0.0281
477.629	0.0273
477.936	0.0273
478.242	0.0271
478.549	0.0276
478.856	0.028
479.162	0.0263
479.469	0.0272
479.775	0.0256
480.081	0.0272
480.388	0.0268
480.694	0.026
481	0.0259
481.306	0.0256
481.612	0.025
481.918	0.0249
482.224	0.0247
482.53	0.0252
482.835	0.0249
483.141	0.0243
483.446	0.0254
483.752	0.024
484.057	0.0243
484.363	0.0235
484.668	0.0237
484.973	0.023
485.278	0.0232
485.583	0.0231
485.888	0.0224
486.193	0.0226
486.498	0.023
486.803	0.0225
487.107	0.022
487.412	0.0212
487.717	0.0204
488.021	0.02
488.325	0.0226
488.63	0.0212
488.934	0.0216
489.238	0.0195
489.542	0.0198
489.846	0.0205
490.15	0.021
490.454	0.0194
490.758	0.0192
491.062	0.0194
491.366	0.0196
491.669	0.0191
491.973	0.0201
492.276	0.0192
492.58	0.0187
492.883	0.0193
493.186	0.0181
493.489	0.018
493.792	0.0185
494.096	0.0181
494.399	0.0173
494.701	0.0177
495.004	0.0173
495.307	0.0168
495.61	0.0162
495.912	0.0165
496.215	0.016
496.517	0.0154
496.82	0.0158
497.122	0.0164
497.424	0.0159
497.727	0.0156
498.029	0.0153
498.331	0.0157
498.633	0.0147
498.935	0.014
499.237	0.0146
499.538	0.0143
499.84	0.0148
500.142	0.015
500.443	0.0143
500.745	0.0149
501.046	0.0135
501.348	0.0143
501.649	0.0141
501.95	0.0144
502.251	0.014
502.552	0.0133
502.853	0.0127
503.154	0.013
503.455	0.0125
503.756	0.0123
504.057	0.0117
504.357	0.0126
504.658	0.0123
504.958	0.012
505.259	0.013
505.559	0.0121
505.859	0.0119
506.16	0.0122
506.46	0.0112
506.76	0.0114
507.06	0.0118
507.36	0.012
507.66	0.0116
507.96	0.0106
508.259	0.0111
508.559	0.0108
508.859	0.0111
509.158	0.0104
509.457	0.01
509.757	0.0101
510.056	0.0117
510.355	0.0109
510.655	0.0101
510.954	0.0093
511.253	0.0101
511.552	0.0099
511.851	0.0094
512.149	0.0095
512.448	0.0082
512.747	0.009
513.045	0.0097
513.344	0.0092
513.642	0.0093
513.941	0.0095
514.239	0.0082
514.537	0.0088
514.836	0.0093
515.134	0.0091
515.432	0.0099
515.73	0.0096
516.028	0.0088
516.326	0.0086
516.623	0.0083
516.921	0.0083
517.219	0.0087
517.516	0.0088
517.814	0.009
518.111	0.008
518.409	0.0076
518.706	0.0063
519.003	0.007
519.3	0.0078
519.597	0.0079
519.894	0.0078
520.191	0.0073
520.488	0.0084
520.785	0.0082
521.082	0.0076
521.378	0.0069
521.675	0.008
521.971	0.0072
522.268	0.0078
522.564	0.0077
522.861	0.0066
523.157	0.0076
523.453	0.0073
523.749	0.006
524.045	0.0071
524.341	0.0067
524.637	0.0057
524.933	0.0057
525.229	0.0062
525.524	0.0063
525.82	0.0075
526.115	0.0062
526.411	0.0071
526.706	0.006
527.002	0.0065
527.297	0.0054
527.592	0.0064
527.887	0.0067
528.182	0.007
528.477	0.0066
528.772	0.0066
529.067	0.0065
529.362	0.0054
529.657	0.0072
529.951	0.0065
530.246	0.0058
530.54	0.0064
530.835	0.0062
531.129	0.0063
531.423	0.0063
531.718	0.0057
532.012	0.005
532.306	0.0063
532.6	0.0061
532.894	0.0052
533.188	0.0061
533.482	0.006
533.775	0.0053
534.069	0.0053
534.363	0.0054
534.656	0.0053
534.95	0.0057
535.243	0.0058
535.536	0.0052
535.83	0.0053
536.123	0.0045
536.416	0.0041
536.709	0.0057
537.002	0.0051
537.295	0.0052
537.588	0.0052
537.881	0.0056
538.173	0.0059
538.466	0.0048
538.759	0.0059
539.051	0.0066
539.344	0.0042
539.636	0.0047
539.928	0.0038
540.22	0.0067
540.513	0.0052
540.805	0.0051
541.097	0.0055
541.389	0.0055
541.681	0.0058
541.972	0.0049
542.264	0.0068
542.556	0.0064
542.847	0.005
543.139	0.006
543.431	0.0048
543.722	0.0045
544.013	0.0058
544.305	0.0051
544.596	0.0058
544.887	0.0048
545.178	0.0041
545.469	0.0034
545.76	0.0048
546.051	0.005
546.342	0.0047
546.632	0.0052
546.923	0.0051
547.214	0.0056
547.504	0.0053
547.795	0.006
548.085	0.006
548.375	0.0053
548.666	0.0055
548.956	0.0062
549.246	0.0052
549.536	0.0058
549.826	0.0063
550.116	0.0056
550.406	0.0073
550.695	0.005
550.985	0.0044
551.275	0.0053
551.564	0.0055
551.854	0.0053
552.143	0.006
552.433	0.004
552.722	0.0056
553.011	0.0057
553.3	0.0057
553.589	0.0045
553.879	0.0044
554.167	0.005
554.456	0.0047
554.745	0.0046
555.034	0.005
555.323	0.0051
555.611	0.0038
555.9	0.0044
556.188	0.0049
556.477	0.0059
556.765	0.0056
557.053	0.0051
557.342	0.0041
557.63	0.0043
557.918	0.0049
558.206	0.0052
558.494	0.0058
558.782	0.0062
559.069	0.0054
559.357	0.0071
559.645	0.0056
559.932	0.0065
560.22	0.0058
560.507	0.0049
560.795	0.0062
561.082	0.007
561.37	0.0064
561.657	0.0075
561.944	0.0059
562.231	0.0039
562.518	0.0067
562.805	0.0061
563.092	0.0062
563.379	0.0063
563.665	0.0053
563.952	0.0056
564.239	0.0053
564.525	0.0047
564.811	0.0057
565.098	0.0065
565.384	0.0054
565.67	0.0054
565.957	0.0065
566.243	0.0069
566.529	0.0059
566.815	0.0054
567.101	0.0062
567.387	0.0064
567.672	0.0055
567.958	0.0057
568.244	0.0062
568.529	0.0066
568.815	0.005
569.1	0.0046
569.386	0.0054
569.671	0.0052
569.956	0.0051
570.242	0.0059
570.527	0.0059
570.812	0.0057
571.097	0.006
571.382	0.0052
571.666	0.0061
571.951	0.005
572.236	0.0051
572.521	0.0058
572.805	0.0061
573.09	0.0044
573.374	0.0044
573.659	0.0057
573.943	0.0049
574.227	0.0055
574.511	0.005
574.795	0.0045
575.079	0.0056
575.363	0.0064
575.647	0.006
575.931	0.006
576.215	0.0065
576.499	0.006
576.782	0.0055
577.066	0.007
577.349	0.0064
577.633	0.0065
577.916	0.0051
578.2	0.0049
578.483	0.0044
578.766	0.0052
579.049	0.0055
579.332	0.0045
579.615	0.0062
579.898	0.0052
580.181	0.0056
580.464	0.0046
580.746	0.005
581.029	0.0056
581.312	0.004
581.594	0.0042
581.877	0.0049
582.159	0.0047
582.441	0.0037
582.724	0.0049
583.006	0.0048
583.288	0.0055
583.57	0.0045
583.852	0.0059
584.134	0.0044
584.416	0.0044
584.697	0.0053
584.979	0.0046
585.261	0.0048
585.542	0.0047
585.824	0.0044
586.105	0.0039
586.387	0.0046
586.668	0.0047
586.949	0.0046
587.231	0.0052
587.512	0.0056
587.793	0.0045
588.074	0.0051
588.355	0.0046
588.636	0.0039
588.916	0.0045
589.197	0.0053
589.478	0.0054
589.758	0.0053
590.039	0.0048
590.319	0.0052
590.6	0.0047
590.88	0.0052
591.16	0.0049
591.441	0.0059
591.721	0.0054
592.001	0.0053
592.281	0.006
592.561	0.0043
592.841	0.0045
593.12	0.0046
593.4	0.0047
593.68	0.0048
593.959	0.0058
594.239	0.0044
594.518	0.0055
594.798	0.0039
595.077	0.0049
595.356	0.0045
595.636	0.0056
595.915	0.006
596.194	0.0054
596.473	0.0067
596.752	0.0056
