Data from 04 0.5 mM K2Cr2O7 0.3 mM BQDS 1 M H2SO4 5 min_ 29_min_gap_Absorbance_0012.txt Node
Date: Tue Dec 14 13:42:55 EST 2021
User: kwabilab-user
Spectrometer: HDX00518
Trigger mode: 0
Integration Time (sec): 5.000000E-2
Scans to average: 50
Nonlinearity correction enabled: false
Boxcar width: 0
Storing dark spectrum: false
XAxis mode: Wavelengths
Number of Pixels in Spectrum: 2068
>>>>>Begin Spectral Data<<<<<
195.27	0.2071
195.642	0.2327
196.014	0.1379
196.386	0.1611
196.758	0.0563
197.129	0.067
197.501	0.0677
197.872	0.076
198.244	0.0763
198.615	0.0835
198.986	0.082
199.357	0.0653
199.728	0.0851
200.099	0.0959
200.47	0.0928
200.841	0.0828
201.212	0.087
201.582	0.0763
201.953	0.0795
202.323	0.0866
202.694	0.0781
203.064	0.0636
203.434	0.0967
203.804	0.0866
204.174	0.0889
204.544	0.1069
204.914	0.0658
205.284	0.0833
205.653	0.1044
206.023	0.0887
206.393	0.0902
206.762	0.077
207.131	0.1001
207.501	0.0864
207.87	0.0998
208.239	0.0822
208.608	0.0897
208.977	0.077
209.346	0.1246
209.715	0.091
210.083	0.1034
210.452	0.1101
210.82	0.0933
211.189	0.096
211.557	0.0989
211.925	0.1152
212.294	0.1039
212.662	0.1206
213.03	0.1257
213.398	0.1077
213.766	0.1097
214.133	0.0959
214.501	0.1107
214.869	0.1019
215.236	0.1014
215.604	0.0918
215.971	0.1314
216.338	0.1154
216.705	0.1185
217.072	0.1301
217.439	0.1399
217.806	0.1335
218.173	0.1197
218.54	0.1605
218.907	0.1553
219.273	0.1563
219.64	0.1644
220.006	0.1963
220.373	0.1893
220.739	0.2269
221.105	0.23
221.471	0.2463
221.837	0.2607
222.203	0.2983
222.569	0.3182
222.935	0.3247
223.3	0.3616
223.666	0.3786
224.031	0.3952
224.397	0.4176
224.762	0.4491
225.127	0.5059
225.493	0.502
225.858	0.5305
226.223	0.5559
226.588	0.5809
226.952	0.5954
227.317	0.6395
227.682	0.6389
228.046	0.6247
228.411	0.6795
228.775	0.687
229.14	0.6885
229.504	0.7263
229.868	0.7405
230.232	0.7313
230.596	0.7417
230.96	0.7612
231.324	0.7639
231.688	0.7657
232.052	0.7897
232.415	0.7854
232.779	0.7872
233.142	0.8005
233.505	0.791
233.869	0.8104
234.232	0.7989
234.595	0.7888
234.958	0.7897
235.321	0.7917
235.684	0.7821
236.047	0.778
236.409	0.7656
236.772	0.7767
237.134	0.771
237.497	0.7668
237.859	0.7681
238.222	0.763
238.584	0.7543
238.946	0.7452
239.308	0.7426
239.67	0.7477
240.032	0.7315
240.393	0.7369
240.755	0.7239
241.117	0.7332
241.478	0.7186
241.84	0.7164
242.201	0.707
242.562	0.7029
242.924	0.6955
243.285	0.6899
243.646	0.6888
244.007	0.6852
244.368	0.6887
244.728	0.684
245.089	0.6827
245.45	0.6652
245.81	0.6707
246.171	0.6578
246.531	0.6617
246.891	0.6653
247.252	0.6558
247.612	0.6564
247.972	0.6552
248.332	0.6528
248.692	0.646
249.051	0.6423
249.411	0.6334
249.771	0.6375
250.13	0.6375
250.49	0.6356
250.849	0.633
251.208	0.6294
251.568	0.6327
251.927	0.6254
252.286	0.6293
252.645	0.6259
253.004	0.624
253.363	0.6167
253.721	0.6213
254.08	0.6176
254.439	0.6179
254.797	0.6165
255.155	0.6147
255.514	0.613
255.872	0.62
256.23	0.6147
256.588	0.6114
256.946	0.6083
257.304	0.6047
257.662	0.6035
258.02	0.5995
258.377	0.6047
258.735	0.5998
259.093	0.6005
259.45	0.5925
259.807	0.5936
260.165	0.5902
260.522	0.5936
260.879	0.5899
261.236	0.5884
261.593	0.5896
261.95	0.5885
262.306	0.585
262.663	0.5807
263.02	0.5801
263.376	0.5792
263.733	0.5738
264.089	0.5739
264.445	0.5732
264.802	0.5685
265.158	0.5728
265.514	0.5664
265.87	0.5636
266.226	0.5652
266.581	0.5656
266.937	0.563
267.293	0.5574
267.648	0.5573
268.004	0.5491
268.359	0.5542
268.714	0.5482
269.07	0.5483
269.425	0.5447
269.78	0.5419
270.135	0.5408
270.49	0.5365
270.844	0.5347
271.199	0.5346
271.554	0.53
271.908	0.5278
272.263	0.5272
272.617	0.5257
272.972	0.5211
273.326	0.5231
273.68	0.5134
274.034	0.5139
274.388	0.5128
274.742	0.5098
275.096	0.5077
275.45	0.5019
275.803	0.5021
276.157	0.4989
276.51	0.4937
276.864	0.4904
277.217	0.4852
277.571	0.482
277.924	0.4812
278.277	0.4747
278.63	0.4734
278.983	0.4682
279.336	0.4658
279.688	0.4617
280.041	0.4583
280.394	0.4571
280.746	0.4536
281.099	0.4448
281.451	0.4433
281.803	0.4427
282.156	0.4365
282.508	0.4336
282.86	0.431
283.212	0.4256
283.564	0.4218
283.916	0.4162
284.267	0.4147
284.619	0.4107
284.971	0.4043
285.322	0.4057
285.673	0.398
286.025	0.3952
286.376	0.3889
286.727	0.3874
287.078	0.3811
287.429	0.3784
287.78	0.3744
288.131	0.3696
288.482	0.3663
288.833	0.3626
289.183	0.3594
289.534	0.3553
289.884	0.3501
290.235	0.3461
290.585	0.3422
290.935	0.3391
291.285	0.3335
291.635	0.3299
291.985	0.3259
292.335	0.3209
292.685	0.3202
293.035	0.3155
293.384	0.3092
293.734	0.3049
294.083	0.3022
294.433	0.2981
294.782	0.2928
295.131	0.2905
295.48	0.2847
295.829	0.2824
296.179	0.2785
296.527	0.2747
296.876	0.2704
297.225	0.2676
297.574	0.2638
297.922	0.2598
298.271	0.2556
298.619	0.2526
298.968	0.2488
299.316	0.2455
299.664	0.2435
300.012	0.2405
300.36	0.235
300.708	0.2318
301.056	0.2304
301.404	0.2271
301.752	0.2241
302.099	0.2211
302.447	0.2182
302.794	0.2164
303.142	0.2129
303.489	0.2103
303.836	0.2075
304.183	0.2044
304.531	0.2027
304.878	0.2009
305.224	0.1993
305.571	0.1974
305.918	0.1952
306.265	0.1929
306.611	0.1914
306.958	0.1891
307.304	0.1876
307.651	0.1865
307.997	0.1837
308.343	0.1832
308.689	0.1828
309.035	0.1803
309.381	0.1795
309.727	0.1778
310.073	0.1769
310.419	0.1764
310.764	0.1764
311.11	0.1746
311.455	0.1743
311.801	0.1739
312.146	0.1728
312.491	0.172
312.837	0.1717
313.182	0.1716
313.527	0.1718
313.872	0.1706
314.216	0.1698
314.561	0.1707
314.906	0.1696
315.251	0.1698
315.595	0.1704
315.94	0.1703
316.284	0.1707
316.628	0.1706
316.972	0.1713
317.317	0.1709
317.661	0.1709
318.005	0.1716
318.348	0.1724
318.692	0.1723
319.036	0.1728
319.38	0.1741
319.723	0.1738
320.067	0.1746
320.41	0.1757
320.754	0.1767
321.097	0.1772
321.44	0.1775
321.783	0.1789
322.126	0.1807
322.469	0.181
322.812	0.1821
323.155	0.184
323.498	0.1846
323.84	0.1856
324.183	0.186
324.525	0.1874
324.868	0.1884
325.21	0.19
325.552	0.1904
325.894	0.1921
326.236	0.1939
326.578	0.1937
326.92	0.1956
327.262	0.1968
327.604	0.198
327.946	0.1989
328.287	0.2013
328.629	0.2025
328.97	0.2034
329.312	0.2053
329.653	0.2061
329.994	0.2081
330.335	0.2088
330.676	0.2108
331.017	0.2126
331.358	0.2136
331.699	0.2147
332.04	0.2158
332.38	0.2178
332.721	0.2191
333.061	0.2207
333.402	0.2219
333.742	0.2243
334.083	0.224
334.423	0.2254
334.763	0.2276
335.103	0.2291
335.443	0.2291
335.783	0.231
336.123	0.2317
336.462	0.2336
336.802	0.2338
337.141	0.235
337.481	0.2361
337.82	0.2377
338.16	0.2391
338.499	0.2398
338.838	0.2407
339.177	0.242
339.516	0.2428
339.855	0.2444
340.194	0.2452
340.533	0.2456
340.872	0.2463
341.21	0.2482
341.549	0.2482
341.887	0.2488
342.226	0.25
342.564	0.2502
342.902	0.2509
343.24	0.2517
343.578	0.2521
343.916	0.2525
344.254	0.2522
344.592	0.2524
344.93	0.2527
345.268	0.2526
345.605	0.2525
345.943	0.2523
346.28	0.2543
346.618	0.2542
346.955	0.2548
347.292	0.2541
347.629	0.254
347.966	0.2544
348.303	0.2546
348.64	0.2546
348.977	0.2548
349.314	0.255
349.65	0.2547
349.987	0.2544
350.324	0.2537
350.66	0.253
350.996	0.2542
351.333	0.2525
351.669	0.2528
352.005	0.2516
352.341	0.2499
352.677	0.25
353.013	0.2481
353.349	0.247
353.685	0.2468
354.02	0.2455
354.356	0.2456
354.691	0.2435
355.027	0.243
355.362	0.2415
355.697	0.241
356.033	0.2399
356.368	0.239
356.703	0.2373
357.038	0.2376
357.373	0.2363
357.707	0.2349
358.042	0.2339
358.377	0.2333
358.711	0.2323
359.046	0.2322
359.38	0.2299
359.715	0.2293
360.049	0.2284
360.383	0.2258
360.717	0.2251
361.051	0.2241
361.385	0.2219
361.719	0.2207
362.053	0.2191
362.387	0.2167
362.72	0.2147
363.054	0.2134
363.387	0.2117
363.721	0.2109
364.054	0.2088
364.387	0.2067
364.721	0.205
365.054	0.2031
365.387	0.2016
365.72	0.1996
366.053	0.1971
366.385	0.1968
366.718	0.1955
367.051	0.1942
367.383	0.1915
367.716	0.1908
368.048	0.1893
368.381	0.1886
368.713	0.1861
369.045	0.1849
369.377	0.1833
369.709	0.1825
370.041	0.1807
370.373	0.18
370.705	0.1771
371.037	0.1763
371.368	0.1746
371.7	0.1719
372.031	0.1708
372.363	0.1698
372.694	0.1674
373.025	0.1657
373.356	0.1632
373.688	0.1615
374.019	0.1599
374.35	0.1587
374.68	0.1552
375.011	0.1538
375.342	0.151
375.673	0.1495
376.003	0.1477
376.334	0.1459
376.664	0.1453
376.995	0.1435
377.325	0.1411
377.655	0.1397
377.985	0.1382
378.315	0.1363
378.645	0.135
378.975	0.1338
379.305	0.133
379.635	0.1313
379.964	0.1294
380.294	0.1288
380.623	0.128
380.953	0.126
381.282	0.125
381.611	0.1231
381.941	0.1225
382.27	0.1209
382.599	0.1193
382.928	0.1178
383.257	0.1163
383.585	0.115
383.914	0.1133
384.243	0.1119
384.571	0.1092
384.9	0.1082
385.228	0.1072
385.557	0.1043
385.885	0.1036
386.213	0.1016
386.541	0.1002
386.869	0.0984
387.197	0.0973
387.525	0.0955
387.853	0.0942
388.181	0.0929
388.508	0.0911
388.836	0.0902
389.164	0.0887
389.491	0.0876
389.818	0.087
390.146	0.0851
390.473	0.084
390.8	0.0825
391.127	0.0815
391.454	0.081
391.781	0.0795
392.108	0.0787
392.435	0.0782
392.761	0.0771
393.088	0.0761
393.415	0.0746
393.741	0.0745
394.067	0.0735
394.394	0.073
394.72	0.0717
395.046	0.0706
395.372	0.0691
395.698	0.0683
396.024	0.0676
396.35	0.0668
396.676	0.0663
397.001	0.0657
397.327	0.0647
397.653	0.0642
397.978	0.063
398.303	0.062
398.629	0.0611
398.954	0.0607
399.279	0.0594
399.604	0.0588
399.929	0.0575
400.254	0.0571
400.579	0.0565
400.904	0.0559
401.229	0.0557
401.553	0.0547
401.878	0.0541
402.202	0.0535
402.527	0.0531
402.851	0.0524
403.175	0.0522
403.5	0.0518
403.824	0.0514
404.148	0.0516
404.472	0.0515
404.796	0.0502
405.119	0.0495
405.443	0.0503
405.767	0.0494
406.09	0.0487
406.414	0.0488
406.737	0.0476
407.061	0.0485
407.384	0.0478
407.707	0.0472
408.03	0.0469
408.353	0.0469
408.676	0.0474
408.999	0.0469
409.322	0.0473
409.645	0.0474
409.968	0.0472
410.29	0.0465
410.613	0.0459
410.935	0.0463
411.258	0.0459
411.58	0.0456
411.902	0.0465
412.224	0.0456
412.546	0.0455
412.868	0.0458
413.19	0.0452
413.512	0.0459
413.834	0.0457
414.156	0.046
414.477	0.0451
414.799	0.0462
415.121	0.0448
415.442	0.0457
415.763	0.0458
416.085	0.0455
416.406	0.0462
416.727	0.0444
417.048	0.0452
417.369	0.0449
417.69	0.0458
418.011	0.0453
418.331	0.0456
418.652	0.0456
418.973	0.0448
419.293	0.0445
419.614	0.0456
419.934	0.0451
420.254	0.0452
420.574	0.0453
420.895	0.0451
421.215	0.0455
421.535	0.0458
421.855	0.0454
422.174	0.0452
422.494	0.045
422.814	0.0458
423.134	0.0463
423.453	0.046
423.773	0.046
424.092	0.0454
424.411	0.0462
424.731	0.0461
425.05	0.0449
425.369	0.0462
425.688	0.0453
426.007	0.0451
426.326	0.0453
426.644	0.0448
426.963	0.0455
427.282	0.0456
427.6	0.0454
427.919	0.0458
428.237	0.0455
428.556	0.0459
428.874	0.0456
429.192	0.0456
429.51	0.0458
429.828	0.0459
430.146	0.0451
430.464	0.0463
430.782	0.046
431.1	0.0451
431.418	0.0461
431.735	0.046
432.053	0.0464
432.37	0.0461
432.688	0.0463
433.005	0.0455
433.322	0.0457
433.639	0.0456
433.957	0.0454
434.274	0.045
434.591	0.0453
434.907	0.0456
435.224	0.0471
435.541	0.0463
435.858	0.046
436.174	0.0459
436.491	0.0462
436.807	0.0456
437.124	0.0456
437.44	0.0458
437.756	0.0455
438.072	0.0456
438.388	0.0459
438.704	0.0452
439.02	0.046
439.336	0.0452
439.652	0.0448
439.968	0.0457
440.283	0.0452
440.599	0.0465
440.914	0.0459
441.23	0.0461
441.545	0.0452
441.86	0.0453
442.175	0.0458
442.491	0.0459
442.806	0.0453
443.121	0.0454
443.435	0.0454
443.75	0.0455
444.065	0.0453
444.38	0.0446
444.694	0.0449
445.009	0.0451
445.323	0.0444
445.638	0.0443
445.952	0.0443
446.266	0.0448
446.58	0.0443
446.894	0.0444
447.208	0.0441
447.522	0.0439
447.836	0.043
448.15	0.0438
448.464	0.0432
448.777	0.0434
449.091	0.0433
449.404	0.0436
449.718	0.043
450.031	0.0433
450.345	0.0431
450.658	0.0433
450.971	0.0442
451.284	0.0433
451.597	0.0428
451.91	0.0425
452.223	0.0429
452.535	0.043
452.848	0.0429
453.161	0.0424
453.473	0.0418
453.786	0.0419
454.098	0.0419
454.411	0.0417
454.723	0.0418
455.035	0.0415
455.347	0.0409
455.659	0.0412
455.971	0.0405
456.283	0.0416
456.595	0.041
456.907	0.0404
457.218	0.0405
457.53	0.0401
457.841	0.0405
458.153	0.0405
458.464	0.0399
458.776	0.0388
459.087	0.0393
459.398	0.0389
459.709	0.0389
460.02	0.0393
460.331	0.0394
460.642	0.0384
460.953	0.0382
461.263	0.0385
461.574	0.0383
461.885	0.0383
462.195	0.0384
462.506	0.0372
462.816	0.0376
463.126	0.0366
463.437	0.0362
463.747	0.0368
464.057	0.0372
464.367	0.0367
464.677	0.0365
464.987	0.0364
465.296	0.0369
465.606	0.0366
465.916	0.036
466.225	0.0355
466.535	0.036
466.844	0.0353
467.154	0.0345
467.463	0.034
467.772	0.035
468.081	0.0341
468.39	0.0336
468.699	0.0339
469.008	0.0334
469.317	0.0338
469.626	0.0331
469.935	0.0332
470.243	0.0337
470.552	0.033
470.86	0.0327
471.169	0.0332
471.477	0.0319
471.785	0.0321
472.093	0.0322
472.402	0.0318
472.71	0.0311
473.018	0.031
473.326	0.0303
473.633	0.0301
473.941	0.0304
474.249	0.0306
474.556	0.0308
474.864	0.0304
475.171	0.0302
475.479	0.0296
475.786	0.0291
476.094	0.0287
476.401	0.0291
476.708	0.0284
477.015	0.0286
477.322	0.0274
477.629	0.028
477.936	0.0274
478.242	0.0276
478.549	0.0276
478.856	0.0271
479.162	0.0264
479.469	0.027
479.775	0.0258
480.081	0.0271
480.388	0.0275
480.694	0.0264
481	0.0257
481.306	0.0251
481.612	0.0259
481.918	0.0248
482.224	0.0245
482.53	0.0256
482.835	0.0251
483.141	0.0245
483.446	0.0246
483.752	0.0245
484.057	0.024
484.363	0.0237
484.668	0.023
484.973	0.0237
485.278	0.0233
485.583	0.0229
485.888	0.0226
486.193	0.023
486.498	0.023
486.803	0.0226
487.107	0.0218
487.412	0.0202
487.717	0.0207
488.021	0.0214
488.325	0.0219
488.63	0.0212
488.934	0.0213
489.238	0.0198
489.542	0.021
489.846	0.0209
490.15	0.0199
490.454	0.0192
490.758	0.0197
491.062	0.0197
491.366	0.0193
491.669	0.0187
491.973	0.0191
492.276	0.0191
492.58	0.0194
492.883	0.0192
493.186	0.0181
493.489	0.0176
493.792	0.0186
494.096	0.0181
494.399	0.0181
494.701	0.0172
495.004	0.0167
495.307	0.0163
495.61	0.016
495.912	0.017
496.215	0.0158
496.517	0.0159
496.82	0.0156
497.122	0.0167
497.424	0.0156
497.727	0.0159
498.029	0.0145
498.331	0.0152
498.633	0.0144
498.935	0.0144
499.237	0.014
499.538	0.0146
499.84	0.0154
500.142	0.0146
500.443	0.0141
500.745	0.0151
501.046	0.0127
501.348	0.0143
501.649	0.0138
501.95	0.0139
502.251	0.0143
502.552	0.0135
502.853	0.0128
503.154	0.0131
503.455	0.0114
503.756	0.012
504.057	0.0117
504.357	0.0129
504.658	0.0123
504.958	0.0118
505.259	0.0124
505.559	0.0113
505.859	0.0115
506.16	0.0122
506.46	0.0123
506.76	0.0111
507.06	0.0117
507.36	0.0112
507.66	0.0112
507.96	0.01
508.259	0.0108
508.559	0.0106
508.859	0.011
509.158	0.01
509.457	0.0108
509.757	0.0094
510.056	0.0111
510.355	0.0109
510.655	0.01
510.954	0.0095
511.253	0.0102
511.552	0.0099
511.851	0.009
512.149	0.0099
512.448	0.0087
512.747	0.0087
513.045	0.0097
513.344	0.0084
513.642	0.01
513.941	0.0092
514.239	0.0073
514.537	0.0085
514.836	0.0093
515.134	0.0095
515.432	0.0089
515.73	0.0098
516.028	0.0093
516.326	0.0079
516.623	0.0082
516.921	0.0088
517.219	0.0077
517.516	0.0082
517.814	0.009
518.111	0.0083
518.409	0.0082
518.706	0.0073
519.003	0.0086
519.3	0.007
519.597	0.0074
519.894	0.0071
520.191	0.0076
520.488	0.0082
520.785	0.0081
521.082	0.0083
521.378	0.0068
521.675	0.0072
521.971	0.0073
522.268	0.0076
522.564	0.0062
522.861	0.0079
523.157	0.0068
523.453	0.0067
523.749	0.0057
524.045	0.0075
524.341	0.0074
524.637	0.0062
524.933	0.0067
525.229	0.0067
525.524	0.007
525.82	0.0065
526.115	0.0061
526.411	0.0067
526.706	0.0065
527.002	0.0061
527.297	0.0068
527.592	0.0067
527.887	0.0067
528.182	0.0059
528.477	0.0071
528.772	0.0066
529.067	0.0065
529.362	0.0059
529.657	0.0067
529.951	0.0055
530.246	0.0055
530.54	0.0055
530.835	0.006
531.129	0.0063
531.423	0.0066
531.718	0.0049
532.012	0.0055
532.306	0.0059
532.6	0.0059
532.894	0.0045
533.188	0.0058
533.482	0.0058
533.775	0.0056
534.069	0.0047
534.363	0.0052
534.656	0.0048
534.95	0.0051
535.243	0.0052
535.536	0.0051
535.83	0.0045
536.123	0.0055
536.416	0.0049
536.709	0.0059
537.002	0.0053
537.295	0.0058
537.588	0.006
537.881	0.0057
538.173	0.0056
538.466	0.0046
538.759	0.0051
539.051	0.0056
539.344	0.0034
539.636	0.0042
539.928	0.0042
540.22	0.0062
540.513	0.0053
540.805	0.0038
541.097	0.0051
541.389	0.0062
541.681	0.0059
541.972	0.0064
542.264	0.0063
542.556	0.0051
542.847	0.0048
543.139	0.0054
543.431	0.0055
543.722	0.0045
544.013	0.0054
544.305	0.0047
544.596	0.0041
544.887	0.0043
545.178	0.005
545.469	0.0026
545.76	0.0053
546.051	0.004
546.342	0.0037
546.632	0.0042
546.923	0.0047
547.214	0.0044
547.504	0.0049
547.795	0.0053
548.085	0.0058
548.375	0.0049
548.666	0.0058
548.956	0.0057
549.246	0.0045
549.536	0.0046
549.826	0.0059
550.116	0.0061
550.406	0.0066
550.695	0.0053
550.985	0.005
551.275	0.0053
551.564	0.0052
551.854	0.005
552.143	0.0057
552.433	0.0048
552.722	0.0053
553.011	0.0066
553.3	0.0052
553.589	0.0044
553.879	0.0041
554.167	0.0037
554.456	0.0048
554.745	0.0046
555.034	0.004
555.323	0.0043
555.611	0.004
555.9	0.0049
556.188	0.0043
556.477	0.0054
556.765	0.0066
557.053	0.0051
557.342	0.0048
557.63	0.0029
557.918	0.0047
558.206	0.005
558.494	0.0048
558.782	0.0055
559.069	0.0055
559.357	0.0062
559.645	0.0049
559.932	0.006
560.22	0.0052
560.507	0.0053
560.795	0.0066
561.082	0.0065
561.37	0.0063
561.657	0.0059
561.944	0.0056
562.231	0.0048
562.518	0.0057
562.805	0.0061
563.092	0.0047
563.379	0.0065
563.665	0.0052
563.952	0.0056
564.239	0.0053
564.525	0.0053
564.811	0.0054
565.098	0.0064
565.384	0.0047
565.67	0.0061
565.957	0.0067
566.243	0.0063
566.529	0.0055
566.815	0.0058
567.101	0.0054
567.387	0.0062
567.672	0.0059
567.958	0.0055
568.244	0.0065
568.529	0.0062
568.815	0.0053
569.1	0.0047
569.386	0.0053
569.671	0.0041
569.956	0.0051
570.242	0.0056
570.527	0.0054
570.812	0.0047
571.097	0.0054
571.382	0.0052
571.666	0.0053
571.951	0.005
572.236	0.0052
572.521	0.0055
572.805	0.0053
573.09	0.0041
573.374	0.0047
573.659	0.0049
573.943	0.0046
574.227	0.0053
574.511	0.0048
574.795	0.0046
575.079	0.0053
575.363	0.0056
575.647	0.0054
575.931	0.006
576.215	0.0057
576.499	0.0056
576.782	0.0056
577.066	0.0056
577.349	0.0055
577.633	0.0066
577.916	0.005
578.2	0.0045
578.483	0.0051
578.766	0.0051
579.049	0.0057
579.332	0.0049
579.615	0.0049
579.898	0.0047
580.181	0.0047
580.464	0.0046
580.746	0.005
581.029	0.0058
581.312	0.0041
581.594	0.0036
581.877	0.0047
582.159	0.0051
582.441	0.004
582.724	0.0045
583.006	0.0045
583.288	0.0048
583.57	0.0046
583.852	0.0057
584.134	0.0051
584.416	0.0042
584.697	0.0046
584.979	0.0045
585.261	0.0044
585.542	0.0048
585.824	0.0048
586.105	0.0038
586.387	0.005
586.668	0.0041
586.949	0.0043
587.231	0.0049
587.512	0.0052
587.793	0.0051
588.074	0.0051
588.355	0.005
588.636	0.0038
588.916	0.0047
589.197	0.005
589.478	0.0051
589.758	0.0058
590.039	0.0045
590.319	0.0046
590.6	0.0047
590.88	0.0047
591.16	0.005
591.441	0.0056
591.721	0.0053
592.001	0.0049
592.281	0.0056
592.561	0.0047
592.841	0.0042
593.12	0.0037
593.4	0.0044
593.68	0.0043
593.959	0.0055
594.239	0.0046
594.518	0.0052
594.798	0.0045
595.077	0.0042
595.356	0.0044
595.636	0.0049
595.915	0.0055
596.194	0.0054
596.473	0.0062
