Data from 04 0.5 mM K2Cr2O7 0.3 mM BQDS 1 M H2SO4 5 min_ 29_min_gap_Absorbance_0029.txt Node
Date: Tue Dec 14 15:07:56 EST 2021
User: kwabilab-user
Spectrometer: HDX00518
Trigger mode: 0
Integration Time (sec): 5.000000E-2
Scans to average: 50
Nonlinearity correction enabled: false
Boxcar width: 0
Storing dark spectrum: false
XAxis mode: Wavelengths
Number of Pixels in Spectrum: 2068
>>>>>Begin Spectral Data<<<<<
195.27	0.1224
195.642	0.2094
196.014	0.4976
196.386	0.2766
196.758	0.1111
197.129	0.0552
197.501	0.0743
197.872	0.0737
198.244	0.087
198.615	0.0771
198.986	0.0941
199.357	0.0737
199.728	0.0979
200.099	0.0966
200.47	0.083
200.841	0.0891
201.212	0.0899
201.582	0.0935
201.953	0.0883
202.323	0.0753
202.694	0.0881
203.064	0.0735
203.434	0.0865
203.804	0.0777
204.174	0.088
204.544	0.1233
204.914	0.1021
205.284	0.1047
205.653	0.0959
206.023	0.0974
206.393	0.0997
206.762	0.0763
207.131	0.092
207.501	0.0841
207.87	0.1103
208.239	0.1053
208.608	0.1012
208.977	0.1179
209.346	0.0959
209.715	0.0992
210.083	0.0921
210.452	0.1032
210.82	0.1047
211.189	0.1054
211.557	0.0829
211.925	0.1254
212.294	0.1211
212.662	0.1172
213.03	0.1102
213.398	0.1341
213.766	0.1223
214.133	0.0871
214.501	0.1321
214.869	0.0961
215.236	0.1098
215.604	0.1125
215.971	0.1215
216.338	0.1239
216.705	0.1282
217.072	0.1184
217.439	0.1476
217.806	0.1415
218.173	0.1407
218.54	0.1605
218.907	0.1538
219.273	0.1822
219.64	0.1904
220.006	0.2401
220.373	0.2139
220.739	0.241
221.105	0.2503
221.471	0.2782
221.837	0.2664
222.203	0.3045
222.569	0.3279
222.935	0.3409
223.3	0.351
223.666	0.4024
224.031	0.4121
224.397	0.4485
224.762	0.4633
225.127	0.5193
225.493	0.5167
225.858	0.5364
226.223	0.5659
226.588	0.5799
226.952	0.6002
227.317	0.6473
227.682	0.6309
228.046	0.6554
228.411	0.6845
228.775	0.7009
229.14	0.7178
229.504	0.7304
229.868	0.7498
230.232	0.7465
230.596	0.7714
230.96	0.7791
231.324	0.7653
231.688	0.7666
232.052	0.7966
232.415	0.8028
232.779	0.8006
233.142	0.7979
233.505	0.7983
233.869	0.809
234.232	0.8005
234.595	0.7958
234.958	0.7932
235.321	0.7983
235.684	0.7795
236.047	0.7885
236.409	0.7699
236.772	0.7782
237.134	0.7823
237.497	0.761
237.859	0.7716
238.222	0.7656
238.584	0.7632
238.946	0.7564
239.308	0.7517
239.67	0.7392
240.032	0.7463
240.393	0.7312
240.755	0.7319
241.117	0.7276
241.478	0.7158
241.84	0.7234
242.201	0.7146
242.562	0.7003
242.924	0.6947
243.285	0.6948
243.646	0.6938
244.007	0.6892
244.368	0.6888
244.728	0.6844
245.089	0.6717
245.45	0.6635
245.81	0.6703
246.171	0.6646
246.531	0.6614
246.891	0.6601
247.252	0.652
247.612	0.6522
247.972	0.653
248.332	0.6494
248.692	0.6543
249.051	0.647
249.411	0.6372
249.771	0.6339
250.13	0.6341
250.49	0.6323
250.849	0.6332
251.208	0.6292
251.568	0.6278
251.927	0.626
252.286	0.6275
252.645	0.6251
253.004	0.6255
253.363	0.621
253.721	0.6203
254.08	0.6146
254.439	0.6165
254.797	0.6085
255.155	0.6082
255.514	0.6075
255.872	0.6123
256.23	0.6069
256.588	0.61
256.946	0.6038
257.304	0.6019
257.662	0.6031
258.02	0.6012
258.377	0.5994
258.735	0.5977
259.093	0.5948
259.45	0.5901
259.807	0.5977
260.165	0.5887
260.522	0.5884
260.879	0.5868
261.236	0.5876
261.593	0.5821
261.95	0.5818
262.306	0.5822
262.663	0.5774
263.02	0.5767
263.376	0.5754
263.733	0.5718
264.089	0.5727
264.445	0.568
264.802	0.5716
265.158	0.5705
265.514	0.5625
265.87	0.5627
266.226	0.5576
266.581	0.5639
266.937	0.5612
267.293	0.5519
267.648	0.5488
268.004	0.5512
268.359	0.5471
268.714	0.5424
269.07	0.5433
269.425	0.5394
269.78	0.5338
270.135	0.537
270.49	0.5338
270.844	0.5335
271.199	0.5286
271.554	0.5293
271.908	0.5218
272.263	0.5243
272.617	0.5173
272.972	0.5178
273.326	0.5132
273.68	0.5128
274.034	0.509
274.388	0.5057
274.742	0.5038
275.096	0.5058
275.45	0.4995
275.803	0.4981
276.157	0.493
276.51	0.4914
276.864	0.49
277.217	0.4839
277.571	0.4807
277.924	0.475
278.277	0.4703
278.63	0.4702
278.983	0.4655
279.336	0.4644
279.688	0.4568
280.041	0.4553
280.394	0.4516
280.746	0.4511
281.099	0.4425
281.451	0.4416
281.803	0.4336
282.156	0.432
282.508	0.43
282.86	0.4249
283.212	0.4225
283.564	0.4177
283.916	0.4136
284.267	0.408
284.619	0.4064
284.971	0.4043
285.322	0.3993
285.673	0.3938
286.025	0.3903
286.376	0.3859
286.727	0.3822
287.078	0.3782
287.429	0.3769
287.78	0.3717
288.131	0.3677
288.482	0.3636
288.833	0.3603
289.183	0.3544
289.534	0.3505
289.884	0.3472
290.235	0.344
290.585	0.3377
290.935	0.333
291.285	0.3294
291.635	0.3266
291.985	0.322
292.335	0.319
292.685	0.3148
293.035	0.3115
293.384	0.3068
293.734	0.3023
294.083	0.2985
294.433	0.295
294.782	0.2917
295.131	0.2875
295.48	0.2829
295.829	0.2803
296.179	0.2763
296.527	0.2724
296.876	0.2681
297.225	0.266
297.574	0.2611
297.922	0.2582
298.271	0.255
298.619	0.2505
298.968	0.2479
299.316	0.2437
299.664	0.2411
300.012	0.2385
300.36	0.2347
300.708	0.2297
301.056	0.2301
301.404	0.2248
301.752	0.2215
302.099	0.2189
302.447	0.2165
302.794	0.2142
303.142	0.2106
303.489	0.2084
303.836	0.2054
304.183	0.2039
304.531	0.2011
304.878	0.1989
305.224	0.1983
305.571	0.1962
305.918	0.1931
306.265	0.1918
306.611	0.1895
306.958	0.1885
307.304	0.1857
307.651	0.185
307.997	0.1822
308.343	0.1823
308.689	0.182
309.035	0.179
309.381	0.1785
309.727	0.1764
310.073	0.1762
310.419	0.1745
310.764	0.1746
311.11	0.1746
311.455	0.1732
311.801	0.1723
312.146	0.1717
312.491	0.1716
312.837	0.1706
313.182	0.1711
313.527	0.1695
313.872	0.1695
314.216	0.1683
314.561	0.1686
314.906	0.1688
315.251	0.169
315.595	0.1696
315.94	0.1691
316.284	0.17
316.628	0.17
316.972	0.1694
317.317	0.1695
317.661	0.1704
318.005	0.1701
318.348	0.1708
318.692	0.1708
319.036	0.1722
319.38	0.1719
319.723	0.1727
320.067	0.1735
320.41	0.1731
320.754	0.1753
321.097	0.1759
321.44	0.176
321.783	0.1776
322.126	0.1792
322.469	0.1789
322.812	0.181
323.155	0.1814
323.498	0.1821
323.84	0.1837
324.183	0.184
324.525	0.1857
324.868	0.1867
325.21	0.1877
325.552	0.1886
325.894	0.1899
326.236	0.1916
326.578	0.192
326.92	0.1935
327.262	0.1952
327.604	0.1963
327.946	0.1973
328.287	0.1987
328.629	0.1998
328.97	0.2006
329.312	0.2025
329.653	0.2037
329.994	0.205
330.335	0.2066
330.676	0.2088
331.017	0.2098
331.358	0.2113
331.699	0.2127
332.04	0.2139
332.38	0.2156
332.721	0.2168
333.061	0.2182
333.402	0.2196
333.742	0.2216
334.083	0.2222
334.423	0.223
334.763	0.2249
335.103	0.2256
335.443	0.2277
335.783	0.2286
336.123	0.2292
336.462	0.2306
336.802	0.2309
337.141	0.2316
337.481	0.2337
337.82	0.2346
338.16	0.2367
338.499	0.237
338.838	0.2381
339.177	0.2394
339.516	0.2406
339.855	0.2412
340.194	0.2428
340.533	0.2424
340.872	0.2434
341.21	0.2448
341.549	0.2451
341.887	0.2469
342.226	0.2474
342.564	0.2461
342.902	0.2475
343.24	0.2487
343.578	0.2487
343.916	0.25
344.254	0.2497
344.592	0.25
344.93	0.2503
345.268	0.2497
345.605	0.2502
345.943	0.2504
346.28	0.2509
346.618	0.2513
346.955	0.2512
347.292	0.2508
347.629	0.2514
347.966	0.2511
348.303	0.2518
348.64	0.252
348.977	0.2516
349.314	0.2512
349.65	0.2516
349.987	0.2513
350.324	0.2512
350.66	0.2502
350.996	0.2502
351.333	0.2488
351.669	0.2494
352.005	0.2481
352.341	0.2475
352.677	0.2464
353.013	0.2452
353.349	0.2443
353.685	0.2439
354.02	0.2427
354.356	0.2426
354.691	0.24
355.027	0.239
355.362	0.2382
355.697	0.2377
356.033	0.2368
356.368	0.236
356.703	0.2343
357.038	0.2343
357.373	0.2326
357.707	0.2317
358.042	0.231
358.377	0.2303
358.711	0.2294
359.046	0.228
359.38	0.227
359.715	0.2261
360.049	0.2251
360.383	0.2236
360.717	0.2222
361.051	0.2213
361.385	0.2193
361.719	0.2182
362.053	0.2163
362.387	0.2135
362.72	0.2127
363.054	0.2106
363.387	0.2094
363.721	0.2069
364.054	0.2063
364.387	0.2039
364.721	0.202
365.054	0.201
365.387	0.1988
365.72	0.1975
366.053	0.1953
366.385	0.1945
366.718	0.1926
367.051	0.1911
367.383	0.1895
367.716	0.1878
368.048	0.1871
368.381	0.1852
368.713	0.1842
369.045	0.1827
369.377	0.181
369.709	0.1796
370.041	0.179
370.373	0.1771
370.705	0.1748
371.037	0.1737
371.368	0.172
371.7	0.1701
372.031	0.1689
372.363	0.1676
372.694	0.1649
373.025	0.1637
373.356	0.1613
373.688	0.1587
374.019	0.1572
374.35	0.1557
374.68	0.1535
375.011	0.1516
375.342	0.1493
375.673	0.1469
376.003	0.1452
376.334	0.144
376.664	0.143
376.995	0.1402
377.325	0.1391
377.655	0.1375
377.985	0.1362
378.315	0.1343
378.645	0.1333
378.975	0.1319
379.305	0.1305
379.635	0.1297
379.964	0.1276
380.294	0.1271
380.623	0.1255
380.953	0.1241
381.282	0.1232
381.611	0.1219
381.941	0.12
382.27	0.1191
382.599	0.1173
382.928	0.1162
383.257	0.1144
383.585	0.1131
383.914	0.1117
384.243	0.1101
384.571	0.1078
384.9	0.1065
385.228	0.1051
385.557	0.1034
385.885	0.1015
386.213	0.1007
386.541	0.0979
386.869	0.0968
387.197	0.0954
387.525	0.094
387.853	0.093
388.181	0.0909
388.508	0.0899
388.836	0.0886
389.164	0.0871
389.491	0.0865
389.818	0.0856
390.146	0.0841
390.473	0.0827
390.8	0.082
391.127	0.0796
391.454	0.0792
391.781	0.0776
392.108	0.077
392.435	0.0765
392.761	0.0762
393.088	0.0751
393.415	0.0733
393.741	0.0735
394.067	0.0723
394.394	0.0718
394.72	0.0708
395.046	0.0695
395.372	0.0681
395.698	0.0674
396.024	0.0664
396.35	0.066
396.676	0.0648
397.001	0.0645
397.327	0.0638
397.653	0.0632
397.978	0.0617
398.303	0.0614
398.629	0.0601
398.954	0.059
399.279	0.0583
399.604	0.0583
399.929	0.0567
400.254	0.056
400.579	0.0553
400.904	0.0552
401.229	0.0547
401.553	0.0536
401.878	0.0539
402.202	0.0529
402.527	0.0518
402.851	0.0515
403.175	0.0514
403.5	0.0508
403.824	0.0513
404.148	0.0505
404.472	0.05
404.796	0.0495
405.119	0.0491
405.443	0.0489
405.767	0.049
406.09	0.0478
406.414	0.0478
406.737	0.0473
407.061	0.0474
407.384	0.0471
407.707	0.0468
408.03	0.0465
408.353	0.0464
408.676	0.0461
408.999	0.0464
409.322	0.0464
409.645	0.0461
409.968	0.0461
410.29	0.0457
410.613	0.0454
410.935	0.0451
411.258	0.045
411.58	0.0451
411.902	0.0457
412.224	0.0446
412.546	0.0449
412.868	0.0447
413.19	0.045
413.512	0.0449
413.834	0.0449
414.156	0.0453
414.477	0.045
414.799	0.0454
415.121	0.0441
415.442	0.0454
415.763	0.0453
416.085	0.0442
416.406	0.0451
416.727	0.0442
417.048	0.0447
417.369	0.0446
417.69	0.0447
418.011	0.0451
418.331	0.045
418.652	0.0446
418.973	0.0445
419.293	0.0435
419.614	0.0447
419.934	0.0442
420.254	0.0446
420.574	0.0443
420.895	0.0442
421.215	0.0444
421.535	0.0448
421.855	0.0442
422.174	0.0441
422.494	0.0445
422.814	0.0444
423.134	0.0453
423.453	0.0454
423.773	0.0448
424.092	0.0449
424.411	0.0453
424.731	0.0453
425.05	0.044
425.369	0.0452
425.688	0.0443
426.007	0.0448
426.326	0.0441
426.644	0.0445
426.963	0.0449
427.282	0.045
427.6	0.0449
427.919	0.0449
428.237	0.0448
428.556	0.0451
428.874	0.0449
429.192	0.0453
429.51	0.0451
429.828	0.0453
430.146	0.0446
430.464	0.0449
430.782	0.045
431.1	0.045
431.418	0.0454
431.735	0.0453
432.053	0.0461
432.37	0.0458
432.688	0.045
433.005	0.0448
433.322	0.0445
433.639	0.0449
433.957	0.0448
434.274	0.0449
434.591	0.0452
434.907	0.0456
435.224	0.0462
435.541	0.0455
435.858	0.0452
436.174	0.046
436.491	0.0449
436.807	0.0449
437.124	0.0449
437.44	0.0457
437.756	0.0445
438.072	0.0448
438.388	0.0455
438.704	0.044
439.02	0.0449
439.336	0.0446
439.652	0.0443
439.968	0.0446
440.283	0.0447
440.599	0.0457
440.914	0.0448
441.23	0.0454
441.545	0.045
441.86	0.0449
442.175	0.0444
442.491	0.0446
442.806	0.0446
443.121	0.0442
443.435	0.044
443.75	0.0438
444.065	0.0447
444.38	0.044
444.694	0.0431
445.009	0.0443
445.323	0.044
445.638	0.0437
445.952	0.0443
446.266	0.0437
446.58	0.0441
446.894	0.0435
447.208	0.0431
447.522	0.0422
447.836	0.0431
448.15	0.0435
448.464	0.0423
448.777	0.0427
449.091	0.0434
449.404	0.0433
449.718	0.0424
450.031	0.0427
450.345	0.0426
450.658	0.0425
450.971	0.0436
451.284	0.0421
451.597	0.0417
451.91	0.0415
452.223	0.0426
452.535	0.0428
452.848	0.0418
453.161	0.0413
453.473	0.0406
453.786	0.0411
454.098	0.0418
454.411	0.0417
454.723	0.041
455.035	0.0408
455.347	0.0405
455.659	0.0398
455.971	0.0408
456.283	0.0398
456.595	0.0396
456.907	0.0399
457.218	0.0394
457.53	0.0391
457.841	0.0399
458.153	0.0396
458.464	0.0393
458.776	0.0386
459.087	0.0384
459.398	0.038
459.709	0.038
460.02	0.038
460.331	0.0388
460.642	0.038
460.953	0.0383
461.263	0.0372
461.574	0.0376
461.885	0.0378
462.195	0.0377
462.506	0.0363
462.816	0.0373
463.126	0.0362
463.437	0.0364
463.747	0.0365
464.057	0.0372
464.367	0.0358
464.677	0.0358
464.987	0.0347
465.296	0.0351
465.606	0.0359
465.916	0.0349
466.225	0.0351
466.535	0.0352
466.844	0.035
467.154	0.0338
467.463	0.0342
467.772	0.0337
468.081	0.0332
468.39	0.0323
468.699	0.0334
469.008	0.0329
469.317	0.0327
469.626	0.0326
469.935	0.032
470.243	0.0334
470.552	0.032
470.86	0.032
471.169	0.0321
471.477	0.0319
471.785	0.0319
472.093	0.0313
472.402	0.0302
472.71	0.0309
473.018	0.0306
473.326	0.0304
473.633	0.0301
473.941	0.0303
474.249	0.0301
474.556	0.0301
474.864	0.0293
475.171	0.0294
475.479	0.0288
475.786	0.0293
476.094	0.0282
476.401	0.0285
476.708	0.0283
477.015	0.0277
477.322	0.0278
477.629	0.0265
477.936	0.0263
478.242	0.0274
478.549	0.0265
478.856	0.0266
479.162	0.0264
479.469	0.0263
479.775	0.0252
480.081	0.0259
480.388	0.0267
480.694	0.0258
481	0.0255
481.306	0.0247
481.612	0.0249
481.918	0.0242
482.224	0.0243
482.53	0.025
482.835	0.024
483.141	0.0237
483.446	0.0247
483.752	0.0235
484.057	0.0235
484.363	0.0231
484.668	0.0231
484.973	0.0224
485.278	0.0229
485.583	0.0222
485.888	0.0217
486.193	0.0218
486.498	0.0226
486.803	0.022
487.107	0.0208
487.412	0.0195
487.717	0.0206
488.021	0.0206
488.325	0.0212
488.63	0.0204
488.934	0.0209
489.238	0.0186
489.542	0.0202
489.846	0.0202
490.15	0.0199
490.454	0.0193
490.758	0.0199
491.062	0.019
491.366	0.0186
491.669	0.0188
491.973	0.0188
492.276	0.0188
492.58	0.0184
492.883	0.0179
493.186	0.0178
493.489	0.0172
493.792	0.0182
494.096	0.0169
494.399	0.0174
494.701	0.0166
495.004	0.0172
495.307	0.0157
495.61	0.0161
495.912	0.0163
496.215	0.0146
496.517	0.0153
496.82	0.0161
497.122	0.0165
497.424	0.0152
497.727	0.0152
498.029	0.0149
498.331	0.015
498.633	0.0149
498.935	0.0138
499.237	0.0146
499.538	0.0142
499.84	0.0147
500.142	0.0135
500.443	0.0136
500.745	0.0148
501.046	0.013
501.348	0.0134
501.649	0.0133
501.95	0.0135
502.251	0.0136
502.552	0.0132
502.853	0.0124
503.154	0.0126
503.455	0.0116
503.756	0.012
504.057	0.0118
504.357	0.0121
504.658	0.0115
504.958	0.012
505.259	0.0128
505.559	0.0122
505.859	0.0119
506.16	0.0121
506.46	0.0116
506.76	0.0112
507.06	0.0115
507.36	0.0114
507.66	0.0109
507.96	0.0095
508.259	0.0104
508.559	0.0106
508.859	0.0104
509.158	0.0104
509.457	0.0101
509.757	0.0101
510.056	0.0106
510.355	0.01
510.655	0.0095
510.954	0.0092
511.253	0.0099
511.552	0.0095
511.851	0.0092
512.149	0.0087
512.448	0.0091
512.747	0.0085
513.045	0.0089
513.344	0.0081
513.642	0.0095
513.941	0.0085
514.239	0.0076
514.537	0.0074
514.836	0.0089
515.134	0.0086
515.432	0.0082
515.73	0.0086
516.028	0.0092
516.326	0.0089
516.623	0.0074
516.921	0.0079
517.219	0.0091
517.516	0.0092
517.814	0.0086
518.111	0.0086
518.409	0.0083
518.706	0.0065
519.003	0.0079
519.3	0.0071
519.597	0.0069
519.894	0.0071
520.191	0.0065
520.488	0.0079
520.785	0.0086
521.082	0.0083
521.378	0.007
521.675	0.0072
521.971	0.0074
522.268	0.0072
522.564	0.0067
522.861	0.007
523.157	0.0071
523.453	0.0065
523.749	0.0061
524.045	0.0069
524.341	0.0072
524.637	0.0053
524.933	0.0053
525.229	0.0066
525.524	0.0067
525.82	0.0074
526.115	0.0066
526.411	0.0063
526.706	0.0051
527.002	0.0072
527.297	0.0054
527.592	0.0061
527.887	0.0065
528.182	0.0067
528.477	0.007
528.772	0.0065
529.067	0.0065
529.362	0.005
529.657	0.0075
529.951	0.0063
530.246	0.0061
530.54	0.0062
530.835	0.006
531.129	0.0062
531.423	0.006
531.718	0.0048
532.012	0.0049
532.306	0.0053
532.6	0.0056
532.894	0.0042
533.188	0.0056
533.482	0.0063
533.775	0.0061
534.069	0.0054
534.363	0.0064
534.656	0.0049
534.95	0.0044
535.243	0.0055
535.536	0.0044
535.83	0.0055
536.123	0.0043
536.416	0.0054
536.709	0.0056
537.002	0.0048
537.295	0.006
537.588	0.0054
537.881	0.005
538.173	0.0053
538.466	0.0047
538.759	0.0054
539.051	0.0052
539.344	0.0038
539.636	0.0048
539.928	0.0052
540.22	0.0061
540.513	0.0044
540.805	0.0041
541.097	0.0055
541.389	0.0049
541.681	0.0057
541.972	0.0053
542.264	0.0063
542.556	0.0052
542.847	0.0057
543.139	0.0056
543.431	0.0049
543.722	0.0044
544.013	0.005
544.305	0.0042
544.596	0.0054
544.887	0.005
545.178	0.0043
545.469	0.0033
545.76	0.0049
546.051	0.0043
546.342	0.0046
546.632	0.0049
546.923	0.0056
547.214	0.004
547.504	0.005
547.795	0.0052
548.085	0.0056
548.375	0.0057
548.666	0.0057
548.956	0.006
549.246	0.0061
549.536	0.0059
549.826	0.0067
550.116	0.0056
550.406	0.0063
550.695	0.0051
550.985	0.005
551.275	0.0056
551.564	0.0049
551.854	0.0053
552.143	0.0051
552.433	0.0046
552.722	0.0055
553.011	0.0054
553.3	0.0058
553.589	0.0055
553.879	0.0052
554.167	0.0049
554.456	0.0047
554.745	0.0048
555.034	0.0054
555.323	0.0051
555.611	0.004
555.9	0.0038
556.188	0.0047
556.477	0.0061
556.765	0.0061
557.053	0.0054
557.342	0.0047
557.63	0.0045
557.918	0.0042
558.206	0.0052
558.494	0.0045
558.782	0.0066
559.069	0.005
559.357	0.0061
559.645	0.0068
559.932	0.0058
560.22	0.0039
560.507	0.0063
560.795	0.0058
561.082	0.0064
561.37	0.0063
561.657	0.0056
561.944	0.0064
562.231	0.0053
562.518	0.0057
562.805	0.0054
563.092	0.0045
563.379	0.0056
563.665	0.0047
563.952	0.0059
564.239	0.0044
564.525	0.0045
564.811	0.0051
565.098	0.0064
565.384	0.0049
565.67	0.0062
565.957	0.0054
566.243	0.0059
566.529	0.0051
566.815	0.0055
567.101	0.0056
567.387	0.007
567.672	0.0047
567.958	0.0062
568.244	0.0055
568.529	0.0063
568.815	0.005
569.1	0.0045
569.386	0.0048
569.671	0.005
569.956	0.0048
570.242	0.0059
570.527	0.0064
570.812	0.0051
571.097	0.0052
571.382	0.0043
571.666	0.0054
571.951	0.0047
572.236	0.0053
572.521	0.0054
572.805	0.0056
573.09	0.0038
573.374	0.0034
573.659	0.0051
573.943	0.005
574.227	0.0057
574.511	0.0047
574.795	0.005
575.079	0.0059
575.363	0.0053
575.647	0.006
575.931	0.0055
576.215	0.0057
576.499	0.0057
576.782	0.0057
577.066	0.006
577.349	0.0063
577.633	0.0051
577.916	0.0044
578.2	0.0045
578.483	0.0054
578.766	0.0056
579.049	0.0051
579.332	0.0047
579.615	0.0048
579.898	0.0045
580.181	0.0051
580.464	0.0047
580.746	0.0045
581.029	0.0052
581.312	0.0038
581.594	0.0029
581.877	0.0047
582.159	0.0054
582.441	0.004
582.724	0.0054
583.006	0.0049
583.288	0.0054
583.57	0.0052
583.852	0.0061
584.134	0.005
584.416	0.0047
584.697	0.0046
584.979	0.0041
585.261	0.005
585.542	0.0049
585.824	0.005
586.105	0.0038
586.387	0.005
586.668	0.0046
586.949	0.0048
587.231	0.0046
587.512	0.0057
587.793	0.0046
588.074	0.0054
588.355	0.0045
588.636	0.004
588.916	0.0041
589.197	0.0053
589.478	0.005
589.758	0.0047
590.039	0.0046
590.319	0.0065
590.6	0.005
590.88	0.005
591.16	0.005
591.441	0.0054
591.721	0.0051
592.001	0.0054
592.281	0.0058
592.561	0.004
592.841	0.0035
593.12	0.0038
593.4	0.0045
593.68	0.0043
593.959	0.0054
594.239	0.0052
594.518	0.006
594.798	0.0043
595.077	0.0052
595.356	0.005
595.636	0.005
595.915	0.0059
596.194	0.0058
596.473	0.0063
596.752	0.0053
