Data from 03 0.4 mM K2Cr2O7 0.25 M BQDS 1 M H2SO4 5 min_Absorbance_0125.txt Node
Date: Wed Dec 15 03:55:12 EST 2021
User: kwabilab-user
Spectrometer: HDX00518
Trigger mode: 0
Integration Time (sec): 5.000000E-2
Scans to average: 50
Nonlinearity correction enabled: false
Boxcar width: 0
Storing dark spectrum: false
XAxis mode: Wavelengths
Number of Pixels in Spectrum: 2068
>>>>>Begin Spectral Data<<<<<
195.27	-0.2547
195.642	-0.1591
196.014	-0.3247
196.386	-0.3233
196.758	-0.1955
197.129	-0.0719
197.501	-0.0693
197.872	-0.0093
198.244	-0.0267
198.615	-0.009
198.986	-0.023
199.357	-0.0211
199.728	-0.0046
200.099	-0.0227
200.47	-0.0294
200.841	-0.0284
201.212	-0.0208
201.582	-0.0163
201.953	-0.015
202.323	-0.0247
202.694	-0.0241
203.064	-0.0274
203.434	-0.033
203.804	-0.0369
204.174	-0.0206
204.544	-0.0226
204.914	-0.0612
205.284	-0.0322
205.653	-0.0439
206.023	-0.0175
206.393	-0.0329
206.762	-0.0384
207.131	-0.0303
207.501	-0.0342
207.87	-0.0267
208.239	-0.0345
208.608	-0.0301
208.977	-0.04
209.346	-0.056
209.715	-0.0342
210.083	-0.0352
210.452	-0.0453
210.82	-0.0128
211.189	-0.0542
211.557	-0.0341
211.925	-0.032
212.294	-0.0533
212.662	-0.0375
213.03	-0.0472
213.398	-0.0426
213.766	-0.0435
214.133	-0.0585
214.501	-0.0464
214.869	-0.041
215.236	-0.0439
215.604	-0.0183
215.971	-0.0034
216.338	-0.031
216.705	-0.0375
217.072	-0.0094
217.439	-0.015
217.806	-0.0121
218.173	-0.0181
218.54	-0.0058
218.907	0.0112
219.273	0.0024
219.64	0.0244
220.006	0.0202
220.373	0.0309
220.739	0.0399
221.105	0.0785
221.471	0.0622
221.837	0.0935
222.203	0.1129
222.569	0.1199
222.935	0.1461
223.3	0.1713
223.666	0.1952
224.031	0.2045
224.397	0.2329
224.762	0.253
225.127	0.2793
225.493	0.3126
225.858	0.3313
226.223	0.3341
226.588	0.3712
226.952	0.3722
227.317	0.3999
227.682	0.4236
228.046	0.4282
228.411	0.4739
228.775	0.469
229.14	0.497
229.504	0.4868
229.868	0.4977
230.232	0.5157
230.596	0.5296
230.96	0.537
231.324	0.5489
231.688	0.5485
232.052	0.5698
232.415	0.5615
232.779	0.5773
233.142	0.5844
233.505	0.5841
233.869	0.5843
234.232	0.5886
234.595	0.5926
234.958	0.5873
235.321	0.5843
235.684	0.5811
236.047	0.5742
236.409	0.5647
236.772	0.5773
237.134	0.584
237.497	0.5697
237.859	0.5834
238.222	0.5801
238.584	0.5719
238.946	0.5734
239.308	0.5685
239.67	0.571
240.032	0.565
240.393	0.5698
240.755	0.5579
241.117	0.5611
241.478	0.5581
241.84	0.5533
242.201	0.5445
242.562	0.5406
242.924	0.5519
243.285	0.5307
243.646	0.5444
244.007	0.535
244.368	0.5344
244.728	0.5289
245.089	0.5362
245.45	0.5219
245.81	0.5245
246.171	0.5185
246.531	0.525
246.891	0.5227
247.252	0.5178
247.612	0.5232
247.972	0.5234
248.332	0.5148
248.692	0.5142
249.051	0.5151
249.411	0.515
249.771	0.515
250.13	0.5129
250.49	0.5044
250.849	0.5085
251.208	0.5078
251.568	0.5108
251.927	0.5102
252.286	0.5121
252.645	0.5022
253.004	0.5119
253.363	0.5015
253.721	0.5076
254.08	0.5071
254.439	0.5018
254.797	0.5023
255.155	0.5038
255.514	0.499
255.872	0.503
256.23	0.5023
256.588	0.4992
256.946	0.5026
257.304	0.4988
257.662	0.5002
258.02	0.4983
258.377	0.4982
258.735	0.4931
259.093	0.4983
259.45	0.496
259.807	0.4978
260.165	0.4977
260.522	0.4987
260.879	0.4879
261.236	0.49
261.593	0.4875
261.95	0.4867
262.306	0.4929
262.663	0.4839
263.02	0.4857
263.376	0.4781
263.733	0.4815
264.089	0.4781
264.445	0.4765
264.802	0.4756
265.158	0.4698
265.514	0.4769
265.87	0.4701
266.226	0.4662
266.581	0.4709
266.937	0.4687
267.293	0.4672
267.648	0.4612
268.004	0.4574
268.359	0.4555
268.714	0.4476
269.07	0.4561
269.425	0.4488
269.78	0.4496
270.135	0.4471
270.49	0.4426
270.844	0.4448
271.199	0.4404
271.554	0.4375
271.908	0.4359
272.263	0.4343
272.617	0.4283
272.972	0.4248
273.326	0.4267
273.68	0.4217
274.034	0.419
274.388	0.4193
274.742	0.4155
275.096	0.4079
275.45	0.4105
275.803	0.4071
276.157	0.4021
276.51	0.3966
276.864	0.3958
277.217	0.3956
277.571	0.3909
277.924	0.3852
278.277	0.3846
278.63	0.3784
278.983	0.3761
279.336	0.3707
279.688	0.3699
280.041	0.3668
280.394	0.3638
280.746	0.3574
281.099	0.361
281.451	0.3525
281.803	0.3498
282.156	0.3453
282.508	0.3413
282.86	0.3364
283.212	0.3339
283.564	0.3327
283.916	0.3258
284.267	0.3227
284.619	0.3231
284.971	0.3183
285.322	0.3163
285.673	0.3118
286.025	0.3079
286.376	0.304
286.727	0.2988
287.078	0.2987
287.429	0.2948
287.78	0.2929
288.131	0.2887
288.482	0.2846
288.833	0.2807
289.183	0.2777
289.534	0.2747
289.884	0.2715
290.235	0.2693
290.585	0.2655
290.935	0.2618
291.285	0.2572
291.635	0.2553
291.985	0.2533
292.335	0.2493
292.685	0.2456
293.035	0.2409
293.384	0.2392
293.734	0.2345
294.083	0.233
294.433	0.2302
294.782	0.2281
295.131	0.2238
295.48	0.2218
295.829	0.2181
296.179	0.2152
296.527	0.2109
296.876	0.2092
297.225	0.2048
297.574	0.2033
297.922	0.2006
298.271	0.1977
298.619	0.1944
298.968	0.1924
299.316	0.19
299.664	0.1869
300.012	0.1842
300.36	0.181
300.708	0.1788
301.056	0.1766
301.404	0.1737
301.752	0.1725
302.099	0.1696
302.447	0.1676
302.794	0.1653
303.142	0.1628
303.489	0.1604
303.836	0.1594
304.183	0.1575
304.531	0.1549
304.878	0.1538
305.224	0.1523
305.571	0.1492
305.918	0.1483
306.265	0.1464
306.611	0.1454
306.958	0.1447
307.304	0.1435
307.651	0.1418
307.997	0.1406
308.343	0.1393
308.689	0.1387
309.035	0.1378
309.381	0.1359
309.727	0.1355
310.073	0.1349
310.419	0.1341
310.764	0.1331
311.11	0.1322
311.455	0.1316
311.801	0.1312
312.146	0.1299
312.491	0.1302
312.837	0.1299
313.182	0.1288
313.527	0.1288
313.872	0.1286
314.216	0.1286
314.561	0.1279
314.906	0.1276
315.251	0.128
315.595	0.1283
315.94	0.1277
316.284	0.1278
316.628	0.1287
316.972	0.1282
317.317	0.1284
317.661	0.1288
318.005	0.1289
318.348	0.1294
318.692	0.1295
319.036	0.1293
319.38	0.1302
319.723	0.1303
320.067	0.1314
320.41	0.1313
320.754	0.1318
321.097	0.1319
321.44	0.1332
321.783	0.1341
322.126	0.1347
322.469	0.1355
322.812	0.1366
323.155	0.1376
323.498	0.1374
323.84	0.1387
324.183	0.1392
324.525	0.1404
324.868	0.1418
325.21	0.1423
325.552	0.1429
325.894	0.1445
326.236	0.1445
326.578	0.1454
326.92	0.1468
327.262	0.1473
327.604	0.1483
327.946	0.1497
328.287	0.1503
328.629	0.1513
328.97	0.1523
329.312	0.1537
329.653	0.156
329.994	0.1564
330.335	0.1567
330.676	0.1589
331.017	0.16
331.358	0.1606
331.699	0.1618
332.04	0.1623
332.38	0.1642
332.721	0.1652
333.061	0.1658
333.402	0.1671
333.742	0.1682
334.083	0.1686
334.423	0.17
334.763	0.1713
335.103	0.1723
335.443	0.1735
335.783	0.1743
336.123	0.1752
336.462	0.1755
336.802	0.1765
337.141	0.1779
337.481	0.1785
337.82	0.1795
338.16	0.1803
338.499	0.1813
338.838	0.1815
339.177	0.1826
339.516	0.1844
339.855	0.1853
340.194	0.1856
340.533	0.1853
340.872	0.186
341.21	0.1873
341.549	0.188
341.887	0.1886
342.226	0.1888
342.564	0.1897
342.902	0.1896
343.24	0.1898
343.578	0.1908
343.916	0.1905
344.254	0.1913
344.592	0.1919
344.93	0.1922
345.268	0.1913
345.605	0.192
345.943	0.1924
346.28	0.1918
346.618	0.1922
346.955	0.1923
347.292	0.1938
347.629	0.1934
347.966	0.1935
348.303	0.1925
348.64	0.1931
348.977	0.1937
349.314	0.194
349.65	0.193
349.987	0.1932
350.324	0.1923
350.66	0.193
350.996	0.1928
351.333	0.1923
351.669	0.1911
352.005	0.1914
352.341	0.1906
352.677	0.1895
353.013	0.189
353.349	0.1886
353.685	0.1874
354.02	0.1868
354.356	0.1866
354.691	0.1855
355.027	0.1845
355.362	0.1834
355.697	0.183
356.033	0.1821
356.368	0.1816
356.703	0.1814
357.038	0.1801
357.373	0.179
357.707	0.1788
358.042	0.1778
358.377	0.1778
358.711	0.1767
359.046	0.1751
359.38	0.1744
359.715	0.1745
360.049	0.1733
360.383	0.1724
360.717	0.1714
361.051	0.1701
361.385	0.1698
361.719	0.168
362.053	0.1677
362.387	0.1653
362.72	0.165
363.054	0.1626
363.387	0.1619
363.721	0.1607
364.054	0.1589
364.387	0.1574
364.721	0.1559
365.054	0.1558
365.387	0.1541
365.72	0.1534
366.053	0.1518
366.385	0.1497
366.718	0.1488
367.051	0.1478
367.383	0.1466
367.716	0.146
368.048	0.1453
368.381	0.1447
368.713	0.1428
369.045	0.1417
369.377	0.1411
369.709	0.1396
370.041	0.1386
370.373	0.1371
370.705	0.1364
371.037	0.1347
371.368	0.1342
371.7	0.1327
372.031	0.132
372.363	0.1299
372.694	0.1287
373.025	0.127
373.356	0.1259
373.688	0.1243
374.019	0.1231
374.35	0.1215
374.68	0.1201
375.011	0.118
375.342	0.1169
375.673	0.1155
376.003	0.1135
376.334	0.1132
376.664	0.112
376.995	0.1102
377.325	0.1092
377.655	0.1072
377.985	0.1063
378.315	0.1053
378.645	0.1047
378.975	0.1039
379.305	0.1023
379.635	0.1022
379.964	0.1005
380.294	0.0999
380.623	0.0985
380.953	0.0967
381.282	0.0961
381.611	0.0957
381.941	0.0951
382.27	0.0934
382.599	0.0929
382.928	0.0913
383.257	0.0904
383.585	0.0895
383.914	0.0879
384.243	0.0869
384.571	0.0856
384.9	0.0846
385.228	0.0828
385.557	0.0819
385.885	0.0808
386.213	0.0796
386.541	0.0782
386.869	0.078
387.197	0.0754
387.525	0.0746
387.853	0.0736
388.181	0.0724
388.508	0.0707
388.836	0.0699
389.164	0.0693
389.491	0.0682
389.818	0.0667
390.146	0.0669
390.473	0.0654
390.8	0.0655
391.127	0.0635
391.454	0.0632
391.781	0.0625
392.108	0.0617
392.435	0.06
392.761	0.0596
393.088	0.0594
393.415	0.0592
393.741	0.0586
394.067	0.0584
394.394	0.0572
394.72	0.0559
395.046	0.0551
395.372	0.0542
395.698	0.0541
396.024	0.0533
396.35	0.0527
396.676	0.0519
397.001	0.0511
397.327	0.0506
397.653	0.05
397.978	0.0497
398.303	0.0484
398.629	0.0481
398.954	0.0468
399.279	0.0472
399.604	0.0456
399.929	0.0459
400.254	0.0452
400.579	0.0447
400.904	0.0439
401.229	0.0434
401.553	0.0432
401.878	0.0432
402.202	0.043
402.527	0.0419
402.851	0.0422
403.175	0.0407
403.5	0.0409
403.824	0.0398
404.148	0.0399
404.472	0.0402
404.796	0.039
405.119	0.039
405.443	0.0391
405.767	0.0385
406.09	0.0388
406.414	0.0386
406.737	0.0387
407.061	0.0387
407.384	0.0383
407.707	0.0373
408.03	0.0375
408.353	0.037
408.676	0.0372
408.999	0.0368
409.322	0.0373
409.645	0.0367
409.968	0.0367
410.29	0.0361
410.613	0.0369
410.935	0.0356
411.258	0.0367
411.58	0.0355
411.902	0.0359
412.224	0.0355
412.546	0.0356
412.868	0.0368
413.19	0.0351
413.512	0.0359
413.834	0.0355
414.156	0.0359
414.477	0.0345
414.799	0.0357
415.121	0.0345
415.442	0.035
415.763	0.0349
416.085	0.0356
416.406	0.0351
416.727	0.0353
417.048	0.0353
417.369	0.0353
417.69	0.0348
418.011	0.0348
418.331	0.0353
418.652	0.0352
418.973	0.0347
419.293	0.0352
419.614	0.0347
419.934	0.036
420.254	0.0351
420.574	0.0342
420.895	0.0344
421.215	0.0347
421.535	0.035
421.855	0.0342
422.174	0.0336
422.494	0.0343
422.814	0.0338
423.134	0.0348
423.453	0.035
423.773	0.0357
424.092	0.0354
424.411	0.0347
424.731	0.0346
425.05	0.0348
425.369	0.0345
425.688	0.0343
426.007	0.0348
426.326	0.0348
426.644	0.0348
426.963	0.035
427.282	0.0349
427.6	0.0349
427.919	0.0348
428.237	0.035
428.556	0.0355
428.874	0.0347
429.192	0.0351
429.51	0.035
429.828	0.0341
430.146	0.0348
430.464	0.0346
430.782	0.0347
431.1	0.0339
431.418	0.0349
431.735	0.0342
432.053	0.0346
432.37	0.0345
432.688	0.0346
433.005	0.034
433.322	0.0345
433.639	0.0352
433.957	0.0348
434.274	0.0355
434.591	0.0348
434.907	0.0343
435.224	0.0347
435.541	0.0348
435.858	0.0362
436.174	0.0351
436.491	0.0347
436.807	0.0342
437.124	0.0346
437.44	0.0342
437.756	0.0353
438.072	0.0345
438.388	0.0343
438.704	0.0335
439.02	0.034
439.336	0.034
439.652	0.0345
439.968	0.0345
440.283	0.0335
440.599	0.0343
440.914	0.0334
441.23	0.0336
441.545	0.0343
441.86	0.0343
442.175	0.0343
442.491	0.0341
442.806	0.0337
443.121	0.0326
443.435	0.0332
443.75	0.0338
444.065	0.0333
444.38	0.0336
444.694	0.0338
445.009	0.0328
445.323	0.0334
445.638	0.0331
445.952	0.0326
446.266	0.0327
446.58	0.0319
446.894	0.0329
447.208	0.0324
447.522	0.032
447.836	0.0324
448.15	0.0328
448.464	0.0319
448.777	0.0324
449.091	0.0321
449.404	0.0314
449.718	0.0318
450.031	0.031
450.345	0.0318
450.658	0.0311
450.971	0.0313
451.284	0.0315
451.597	0.0321
451.91	0.0308
452.223	0.0312
452.535	0.0312
452.848	0.0312
453.161	0.031
453.473	0.0312
453.786	0.0306
454.098	0.0307
454.411	0.0305
454.723	0.0309
455.035	0.03
455.347	0.0296
455.659	0.0301
455.971	0.0301
456.283	0.0304
456.595	0.0305
456.907	0.0303
457.218	0.0303
457.53	0.0291
457.841	0.0288
458.153	0.0296
458.464	0.0287
458.776	0.0284
459.087	0.029
459.398	0.0284
459.709	0.0276
460.02	0.0287
460.331	0.0289
460.642	0.0283
460.953	0.0282
461.263	0.028
461.574	0.0272
461.885	0.0287
462.195	0.0268
462.506	0.0281
462.816	0.0286
463.126	0.028
463.437	0.0278
463.747	0.0263
464.057	0.0261
464.367	0.0255
464.677	0.0264
464.987	0.0262
465.296	0.0257
465.606	0.0258
465.916	0.0253
466.225	0.0255
466.535	0.0255
466.844	0.0258
467.154	0.026
467.463	0.025
467.772	0.0258
468.081	0.0248
468.39	0.0251
468.699	0.0252
469.008	0.0251
469.317	0.0248
469.626	0.0245
469.935	0.0244
470.243	0.0244
470.552	0.0237
470.86	0.024
471.169	0.0236
471.477	0.0229
471.785	0.0232
472.093	0.0225
472.402	0.0221
472.71	0.0226
473.018	0.0218
473.326	0.022
473.633	0.0215
473.941	0.0217
474.249	0.0221
474.556	0.0209
474.864	0.0216
475.171	0.022
475.479	0.0212
475.786	0.0216
476.094	0.0212
476.401	0.0204
476.708	0.0211
477.015	0.0211
477.322	0.0196
477.629	0.0194
477.936	0.0202
478.242	0.0201
478.549	0.0203
478.856	0.0198
479.162	0.0195
479.469	0.0192
479.775	0.0187
480.081	0.0185
480.388	0.0186
480.694	0.0191
481	0.0179
481.306	0.0183
481.612	0.0189
481.918	0.0185
482.224	0.0186
482.53	0.0182
482.835	0.0181
483.141	0.0181
483.446	0.0174
483.752	0.0169
484.057	0.0163
484.363	0.0164
484.668	0.0172
484.973	0.0151
485.278	0.0162
485.583	0.0155
485.888	0.0158
486.193	0.0149
486.498	0.0157
486.803	0.0163
487.107	0.0146
487.412	0.0143
487.717	0.015
488.021	0.0154
488.325	0.0148
488.63	0.0145
488.934	0.0145
489.238	0.0141
489.542	0.0147
489.846	0.0139
490.15	0.0143
490.454	0.0151
490.758	0.0135
491.062	0.0138
491.366	0.0136
491.669	0.0133
491.973	0.0134
492.276	0.0129
492.58	0.0124
492.883	0.0129
493.186	0.0125
493.489	0.0129
493.792	0.0118
494.096	0.0114
494.399	0.0115
494.701	0.0117
495.004	0.0114
495.307	0.0116
495.61	0.0115
495.912	0.0122
496.215	0.0118
496.517	0.0122
496.82	0.0107
497.122	0.0113
497.424	0.0114
497.727	0.01
498.029	0.011
498.331	0.0102
498.633	0.0102
498.935	0.0101
499.237	0.0102
499.538	0.0096
499.84	0.0105
500.142	0.01
500.443	0.0096
500.745	0.0094
501.046	0.0095
501.348	0.0084
501.649	0.0097
501.95	0.0086
502.251	0.0097
502.552	0.0087
502.853	0.01
503.154	0.0092
503.455	0.0087
503.756	0.0092
504.057	0.0082
504.357	0.0082
504.658	0.0085
504.958	0.0077
505.259	0.0093
505.559	0.008
505.859	0.0068
506.16	0.0076
506.46	0.0074
506.76	0.0074
507.06	0.0065
507.36	0.0065
507.66	0.0073
507.96	0.0081
508.259	0.0074
508.559	0.0066
508.859	0.0074
509.158	0.0073
509.457	0.0054
509.757	0.006
510.056	0.0062
510.355	0.0065
510.655	0.0058
510.954	0.0059
511.253	0.0054
511.552	0.0058
511.851	0.0063
512.149	0.0059
512.448	0.0053
512.747	0.0055
513.045	0.005
513.344	0.0057
513.642	0.0055
513.941	0.0053
514.239	0.0049
514.537	0.0059
514.836	0.0053
515.134	0.0054
515.432	0.0051
515.73	0.005
516.028	0.0054
516.326	0.0041
516.623	0.0038
516.921	0.0049
517.219	0.0051
517.516	0.0041
517.814	0.0047
518.111	0.0051
518.409	0.0051
518.706	0.0052
519.003	0.0044
519.3	0.0038
519.597	0.0048
519.894	0.0039
520.191	0.0057
520.488	0.0051
520.785	0.0042
521.082	0.0056
521.378	0.0048
521.675	0.0037
521.971	0.0038
522.268	0.0038
522.564	0.0046
522.861	0.0052
523.157	0.0038
523.453	0.0047
523.749	0.0047
524.045	0.0035
524.341	0.0039
524.637	0.0032
524.933	0.0052
525.229	0.0038
525.524	0.0034
525.82	0.0045
526.115	0.0042
526.411	0.0039
526.706	0.0035
527.002	0.0043
527.297	0.0024
527.592	0.0043
527.887	0.003
528.182	0.0027
528.477	0.0045
528.772	0.003
529.067	0.0041
529.362	0.0044
529.657	0.0031
529.951	0.0032
530.246	0.0025
530.54	0.0038
530.835	0.0033
531.129	0.0035
531.423	0.0023
531.718	0.0032
532.012	0.0027
532.306	0.0029
532.6	0.003
532.894	0.0042
533.188	0.002
533.482	0.0025
533.775	0.0024
534.069	0.0034
534.363	0.0022
534.656	0.0026
534.95	0.0027
535.243	0.0029
535.536	0.0026
535.83	0.0022
536.123	0.0018
536.416	0.0024
536.709	0.0033
537.002	0.0039
537.295	0.0034
537.588	0.0031
537.881	0.003
538.173	0.0031
538.466	0.004
538.759	0.0029
539.051	0.0036
539.344	0.0036
539.636	0.0033
539.928	0.0041
540.22	0.0023
540.513	0.0026
540.805	0.0036
541.097	0.0039
541.389	0.0024
541.681	0.0033
541.972	0.0031
542.264	0.0032
542.556	0.0041
542.847	0.0037
543.139	0.0032
543.431	0.0028
543.722	0.0028
544.013	0.0034
544.305	0.0024
544.596	0.0027
544.887	0.003
545.178	0.0043
545.469	0.0039
545.76	0.0041
546.051	0.0042
546.342	0.0036
546.632	0.004
546.923	0.0036
547.214	0.0026
547.504	0.0039
547.795	0.0032
548.085	0.0028
548.375	0.0034
548.666	0.0044
548.956	0.0032
549.246	0.0034
549.536	0.0027
549.826	0.0046
550.116	0.0035
550.406	0.0039
550.695	0.0044
550.985	0.0033
551.275	0.0039
551.564	0.0055
551.854	0.0042
552.143	0.0039
552.433	0.0038
552.722	0.0033
553.011	0.0044
553.3	0.0036
553.589	0.004
553.879	0.0039
554.167	0.0028
554.456	0.0035
554.745	0.0044
555.034	0.0046
555.323	0.0033
555.611	0.0034
555.9	0.0038
556.188	0.003
556.477	0.0028
556.765	0.0031
557.053	0.0038
557.342	0.0035
557.63	0.0038
557.918	0.0037
558.206	0.0043
558.494	0.0038
558.782	0.0041
559.069	0.0043
559.357	0.0044
559.645	0.0052
559.932	0.0043
560.22	0.004
560.507	0.0019
560.795	0.0029
561.082	0.0022
561.37	0.0031
561.657	0.0026
561.944	0.0022
562.231	0.0032
562.518	0.0033
562.805	0.0039
563.092	0.0024
563.379	0.0033
563.665	0.0033
563.952	0.0048
564.239	0.004
564.525	0.0029
564.811	0.0038
565.098	0.0034
565.384	0.0033
565.67	0.003
565.957	0.0036
566.243	0.0047
566.529	0.0031
566.815	0.0043
567.101	0.0038
567.387	0.0036
567.672	0.0026
567.958	0.0024
568.244	0.002
568.529	0.0022
568.815	0.0029
569.1	0.0026
569.386	0.0028
569.671	0.0041
569.956	0.003
570.242	0.0032
570.527	0.0025
570.812	0.0031
571.097	0.0024
571.382	0.0015
571.666	0.0023
571.951	0.0032
572.236	0.0032
572.521	0.0033
572.805	0.0042
573.09	0.0035
573.374	0.0027
573.659	0.003
573.943	0.0026
574.227	0.0032
574.511	0.0031
574.795	0.0031
575.079	0.0036
575.363	0.0027
575.647	0.003
575.931	0.0036
576.215	0.0034
576.499	0.0026
576.782	0.0029
577.066	0.0028
577.349	0.0036
577.633	0.0031
577.916	0.003
578.2	0.0034
578.483	0.0035
578.766	0.0042
579.049	0.0026
579.332	0.0035
579.615	0.0033
579.898	0.0023
580.181	0.003
580.464	0.0029
580.746	0.0034
581.029	0.0037
581.312	0.003
581.594	0.002
581.877	0.003
582.159	0.0038
582.441	0.0025
582.724	0.0024
583.006	0.0031
583.288	0.003
583.57	0.0032
583.852	0.0037
584.134	0.0038
584.416	0.0029
584.697	0.0033
584.979	0.0026
585.261	0.0025
585.542	0.0029
585.824	0.0037
586.105	0.0031
586.387	0.0034
586.668	0.0034
586.949	0.0036
587.231	0.0035
587.512	0.0033
587.793	0.0024
588.074	0.0033
588.355	0.0035
588.636	0.003
588.916	0.0028
589.197	0.0025
589.478	0.003
589.758	0.0027
590.039	0.002
590.319	0.0026
590.6	0.0019
590.88	0.0022
591.16	0.0025
591.441	0.003
591.721	0.0028
592.001	0.002
592.281	0.0026
592.561	0.0032
592.841	0.0026
593.12	0.0027
593.4	0.0031
593.68	0.0034
593.959	0.0029
594.239	0.0033
594.518	0.0041
594.798	0.0042
595.077	0.0027
595.356	0.0027
595.636	0.0026
