Data from 03 0.4 mM K2Cr2O7 0.25 M BQDS 1 M H2SO4 5 min_Absorbance_0140.txt Node
Date: Wed Dec 15 05:10:12 EST 2021
User: kwabilab-user
Spectrometer: HDX00518
Trigger mode: 0
Integration Time (sec): 5.000000E-2
Scans to average: 50
Nonlinearity correction enabled: false
Boxcar width: 0
Storing dark spectrum: false
XAxis mode: Wavelengths
Number of Pixels in Spectrum: 2068
>>>>>Begin Spectral Data<<<<<
195.27	-0.079
195.642	0.2293
196.014	-0.128
196.386	0.2208
196.758	-0.1037
197.129	-0.0153
197.501	-0.0196
197.872	0.0097
198.244	0.0129
198.615	0.0406
198.986	0.0252
199.357	0.0224
199.728	0.0246
200.099	0.0215
200.47	0.0204
200.841	0.0117
201.212	0.0097
201.582	0.0164
201.953	0.0257
202.323	0.0291
202.694	0.0024
203.064	-0.002
203.434	-0.0033
203.804	0.0046
204.174	0.0087
204.544	0.0187
204.914	0.0093
205.284	0.0098
205.653	-0.0033
206.023	0.0159
206.393	0.0159
206.762	0.0083
207.131	0.0186
207.501	0.0304
207.87	0.019
208.239	0.0002
208.608	0.0162
208.977	-0.0022
209.346	-0.0005
209.715	0.0064
210.083	0.0021
210.452	0.0224
210.82	0.0357
211.189	0.0122
211.557	0.0177
211.925	0.0073
212.294	0.0007
212.662	0.0141
213.03	0.01
213.398	0.0199
213.766	0.0139
214.133	0.0328
214.501	0.0276
214.869	0.0046
215.236	0.0127
215.604	0.0376
215.971	0.0496
216.338	0.0144
216.705	0.0151
217.072	0.0232
217.439	0.026
217.806	0.0263
218.173	0.0381
218.54	0.0281
218.907	0.0507
219.273	0.0442
219.64	0.0601
220.006	0.0783
220.373	0.0857
220.739	0.1186
221.105	0.1294
221.471	0.1334
221.837	0.1301
222.203	0.1679
222.569	0.1754
222.935	0.1781
223.3	0.2196
223.666	0.2273
224.031	0.265
224.397	0.2833
224.762	0.304
225.127	0.344
225.493	0.3677
225.858	0.3714
226.223	0.3974
226.588	0.4184
226.952	0.4217
227.317	0.4694
227.682	0.4714
228.046	0.4583
228.411	0.4895
228.775	0.5183
229.14	0.5146
229.504	0.5288
229.868	0.5569
230.232	0.5441
230.596	0.5625
230.96	0.5837
231.324	0.5919
231.688	0.5912
232.052	0.5989
232.415	0.6026
232.779	0.6143
233.142	0.6084
233.505	0.6028
233.869	0.6121
234.232	0.6108
234.595	0.6126
234.958	0.6162
235.321	0.6149
235.684	0.6142
236.047	0.6139
236.409	0.6023
236.772	0.6068
237.134	0.6087
237.497	0.5983
237.859	0.6078
238.222	0.5976
238.584	0.5878
238.946	0.5939
239.308	0.5804
239.67	0.5854
240.032	0.5818
240.393	0.5771
240.755	0.5724
241.117	0.574
241.478	0.5662
241.84	0.5643
242.201	0.5697
242.562	0.5515
242.924	0.557
243.285	0.5465
243.646	0.5509
244.007	0.5407
244.368	0.5512
244.728	0.5369
245.089	0.5408
245.45	0.5368
245.81	0.5326
246.171	0.5277
246.531	0.5286
246.891	0.531
247.252	0.529
247.612	0.5266
247.972	0.525
248.332	0.5169
248.692	0.5226
249.051	0.5248
249.411	0.5197
249.771	0.5164
250.13	0.5178
250.49	0.511
250.849	0.5139
251.208	0.5163
251.568	0.5204
251.927	0.5117
252.286	0.5156
252.645	0.5093
253.004	0.5099
253.363	0.5125
253.721	0.5173
254.08	0.514
254.439	0.5043
254.797	0.5044
255.155	0.5083
255.514	0.5077
255.872	0.5044
256.23	0.5004
256.588	0.5076
256.946	0.5051
257.304	0.5026
257.662	0.5051
258.02	0.5007
258.377	0.4979
258.735	0.4985
259.093	0.4938
259.45	0.497
259.807	0.4994
260.165	0.4981
260.522	0.4961
260.879	0.4879
261.236	0.49
261.593	0.4851
261.95	0.4869
262.306	0.4873
262.663	0.4891
263.02	0.4879
263.376	0.485
263.733	0.4807
264.089	0.4788
264.445	0.4809
264.802	0.4798
265.158	0.4775
265.514	0.4759
265.87	0.4698
266.226	0.4727
266.581	0.4712
266.937	0.4724
267.293	0.4697
267.648	0.4624
268.004	0.4608
268.359	0.4582
268.714	0.4565
269.07	0.4552
269.425	0.4512
269.78	0.4496
270.135	0.4466
270.49	0.4422
270.844	0.4468
271.199	0.4394
271.554	0.4361
271.908	0.4318
272.263	0.4326
272.617	0.4293
272.972	0.4266
273.326	0.4266
273.68	0.4203
274.034	0.4192
274.388	0.417
274.742	0.415
275.096	0.4142
275.45	0.4097
275.803	0.4043
276.157	0.4014
276.51	0.3983
276.864	0.3969
277.217	0.3946
277.571	0.39
277.924	0.3843
278.277	0.3817
278.63	0.3776
278.983	0.3746
279.336	0.3707
279.688	0.3705
280.041	0.3663
280.394	0.3609
280.746	0.3567
281.099	0.3543
281.451	0.3494
281.803	0.3473
282.156	0.3411
282.508	0.3388
282.86	0.3362
283.212	0.3334
283.564	0.3281
283.916	0.321
284.267	0.3213
284.619	0.3201
284.971	0.3155
285.322	0.3135
285.673	0.3087
286.025	0.3018
286.376	0.3018
286.727	0.2992
287.078	0.2938
287.429	0.2941
287.78	0.2864
288.131	0.2839
288.482	0.2813
288.833	0.2784
289.183	0.2751
289.534	0.2701
289.884	0.2699
290.235	0.2633
290.585	0.2625
290.935	0.258
291.285	0.256
291.635	0.252
291.985	0.2494
292.335	0.2456
292.685	0.243
293.035	0.2378
293.384	0.2347
293.734	0.2322
294.083	0.231
294.433	0.2267
294.782	0.2254
295.131	0.2199
295.48	0.2174
295.829	0.215
296.179	0.2123
296.527	0.2076
296.876	0.2059
297.225	0.2015
297.574	0.1994
297.922	0.1971
298.271	0.1936
298.619	0.1899
298.968	0.1901
299.316	0.1863
299.664	0.1844
300.012	0.182
300.36	0.178
300.708	0.1762
301.056	0.1725
301.404	0.1718
301.752	0.1686
302.099	0.1666
302.447	0.1649
302.794	0.1624
303.142	0.1598
303.489	0.1586
303.836	0.1564
304.183	0.155
304.531	0.1522
304.878	0.1511
305.224	0.1491
305.571	0.1481
305.918	0.1472
306.265	0.1433
306.611	0.1429
306.958	0.1421
307.304	0.1403
307.651	0.1396
307.997	0.1383
308.343	0.1352
308.689	0.136
309.035	0.1344
309.381	0.1326
309.727	0.1325
310.073	0.1318
310.419	0.1311
310.764	0.1305
311.11	0.1294
311.455	0.1292
311.801	0.1283
312.146	0.1272
312.491	0.1273
312.837	0.1273
313.182	0.1259
313.527	0.1257
313.872	0.1257
314.216	0.1261
314.561	0.1252
314.906	0.1251
315.251	0.1268
315.595	0.126
315.94	0.1257
316.284	0.1255
316.628	0.1253
316.972	0.1253
317.317	0.1256
317.661	0.1257
318.005	0.1258
318.348	0.1262
318.692	0.1271
319.036	0.1268
319.38	0.1283
319.723	0.1271
320.067	0.1284
320.41	0.1293
320.754	0.1297
321.097	0.1297
321.44	0.1307
321.783	0.1317
322.126	0.132
322.469	0.1324
322.812	0.134
323.155	0.1344
323.498	0.1347
323.84	0.1361
324.183	0.1365
324.525	0.1377
324.868	0.1392
325.21	0.1392
325.552	0.14
325.894	0.1413
326.236	0.142
326.578	0.1429
326.92	0.144
327.262	0.1452
327.604	0.146
327.946	0.1468
328.287	0.1469
328.629	0.149
328.97	0.1492
329.312	0.1507
329.653	0.152
329.994	0.153
330.335	0.1541
330.676	0.156
331.017	0.1562
331.358	0.1573
331.699	0.1588
332.04	0.16
332.38	0.1606
332.721	0.1621
333.061	0.1622
333.402	0.1644
333.742	0.1648
334.083	0.1653
334.423	0.1668
334.763	0.1682
335.103	0.1687
335.443	0.17
335.783	0.1715
336.123	0.1712
336.462	0.1731
336.802	0.1735
337.141	0.1742
337.481	0.1751
337.82	0.1765
338.16	0.1771
338.499	0.178
338.838	0.179
339.177	0.1795
339.516	0.1807
339.855	0.1811
340.194	0.1822
340.533	0.1821
340.872	0.1828
341.21	0.1845
341.549	0.1845
341.887	0.1856
342.226	0.186
342.564	0.1858
342.902	0.1868
343.24	0.1868
343.578	0.1879
343.916	0.1873
344.254	0.1879
344.592	0.1891
344.93	0.1878
345.268	0.1879
345.605	0.1887
345.943	0.1892
346.28	0.1889
346.618	0.1882
346.955	0.1896
347.292	0.1899
347.629	0.1898
347.966	0.1899
348.303	0.1898
348.64	0.1892
348.977	0.1904
349.314	0.1904
349.65	0.1898
349.987	0.1908
350.324	0.1895
350.66	0.19
350.996	0.1893
351.333	0.1889
351.669	0.1883
352.005	0.1886
352.341	0.1875
352.677	0.1869
353.013	0.186
353.349	0.1852
353.685	0.1841
354.02	0.1837
354.356	0.1836
354.691	0.1827
355.027	0.1817
355.362	0.181
355.697	0.1802
356.033	0.1797
356.368	0.1785
356.703	0.1781
357.038	0.1776
357.373	0.1763
357.707	0.1762
358.042	0.1751
358.377	0.174
358.711	0.1742
359.046	0.1732
359.38	0.1721
359.715	0.1718
360.049	0.1707
360.383	0.1695
360.717	0.1679
361.051	0.1678
361.385	0.167
361.719	0.1658
362.053	0.165
362.387	0.1624
362.72	0.1612
363.054	0.1603
363.387	0.1589
363.721	0.1574
364.054	0.1567
364.387	0.1546
364.721	0.1531
365.054	0.1522
365.387	0.1511
365.72	0.1505
366.053	0.1486
366.385	0.147
366.718	0.1464
367.051	0.1448
367.383	0.1444
367.716	0.143
368.048	0.1423
368.381	0.1417
368.713	0.1403
369.045	0.1399
369.377	0.1386
369.709	0.1374
370.041	0.1363
370.373	0.1351
370.705	0.1339
371.037	0.1327
371.368	0.1315
371.7	0.1303
372.031	0.1296
372.363	0.1275
372.694	0.1268
373.025	0.1249
373.356	0.1242
373.688	0.1226
374.019	0.1216
374.35	0.1195
374.68	0.1173
375.011	0.1169
375.342	0.115
375.673	0.1138
376.003	0.1113
376.334	0.1117
376.664	0.1103
376.995	0.1086
377.325	0.107
377.655	0.1056
377.985	0.1042
378.315	0.1034
378.645	0.1023
378.975	0.1017
379.305	0.1001
379.635	0.0997
379.964	0.0985
380.294	0.0981
380.623	0.0965
380.953	0.095
381.282	0.0943
381.611	0.0943
381.941	0.0931
382.27	0.0916
382.599	0.0913
382.928	0.0895
383.257	0.0887
383.585	0.088
383.914	0.0861
384.243	0.0856
384.571	0.0843
384.9	0.0826
385.228	0.0811
385.557	0.0806
385.885	0.0792
386.213	0.0777
386.541	0.0762
386.869	0.0753
387.197	0.0738
387.525	0.073
387.853	0.0726
388.181	0.0705
388.508	0.07
388.836	0.0689
389.164	0.0678
389.491	0.067
389.818	0.0653
390.146	0.0656
390.473	0.0645
390.8	0.064
391.127	0.0627
391.454	0.062
391.781	0.0617
392.108	0.0602
392.435	0.0589
392.761	0.0584
393.088	0.0585
393.415	0.0579
393.741	0.0575
394.067	0.0572
394.394	0.0561
394.72	0.0555
395.046	0.0544
395.372	0.0542
395.698	0.0528
396.024	0.0517
396.35	0.0519
396.676	0.0507
397.001	0.0506
397.327	0.0492
397.653	0.0485
397.978	0.049
398.303	0.047
398.629	0.0473
398.954	0.0464
399.279	0.0467
399.604	0.0455
399.929	0.0452
400.254	0.0439
400.579	0.0437
400.904	0.0429
401.229	0.0425
401.553	0.043
401.878	0.0422
402.202	0.0426
402.527	0.0415
402.851	0.0411
403.175	0.0398
403.5	0.0401
403.824	0.0389
404.148	0.0396
404.472	0.0392
404.796	0.0388
405.119	0.0385
405.443	0.0382
405.767	0.0379
406.09	0.0381
406.414	0.0373
406.737	0.0385
407.061	0.0377
407.384	0.0373
407.707	0.0368
408.03	0.0368
408.353	0.0364
408.676	0.0366
408.999	0.0364
409.322	0.0359
409.645	0.0359
409.968	0.0362
410.29	0.036
410.613	0.0367
410.935	0.0359
411.258	0.0362
411.58	0.0349
411.902	0.035
412.224	0.035
412.546	0.0352
412.868	0.0358
413.19	0.0345
413.512	0.0352
413.834	0.0344
414.156	0.0351
414.477	0.0343
414.799	0.0349
415.121	0.034
415.442	0.0344
415.763	0.0341
416.085	0.0351
416.406	0.034
416.727	0.0353
417.048	0.0348
417.369	0.0351
417.69	0.0342
418.011	0.0342
418.331	0.035
418.652	0.0345
418.973	0.0335
419.293	0.0341
419.614	0.0337
419.934	0.0346
420.254	0.0341
420.574	0.0332
420.895	0.0343
421.215	0.0342
421.535	0.0344
421.855	0.0332
422.174	0.0331
422.494	0.0338
422.814	0.0334
423.134	0.0343
423.453	0.0338
423.773	0.0345
424.092	0.0341
424.411	0.0338
424.731	0.0335
425.05	0.0343
425.369	0.0343
425.688	0.0336
426.007	0.0343
426.326	0.0346
426.644	0.0343
426.963	0.034
427.282	0.0345
427.6	0.0347
427.919	0.0339
428.237	0.0344
428.556	0.0345
428.874	0.0342
429.192	0.0343
429.51	0.0333
429.828	0.0341
430.146	0.0341
430.464	0.0336
430.782	0.0338
431.1	0.0333
431.418	0.0333
431.735	0.0335
432.053	0.0335
432.37	0.0339
432.688	0.0339
433.005	0.0331
433.322	0.0347
433.639	0.0343
433.957	0.0336
434.274	0.0342
434.591	0.0338
434.907	0.0341
435.224	0.034
435.541	0.0337
435.858	0.0353
436.174	0.0349
436.491	0.0342
436.807	0.0337
437.124	0.0334
437.44	0.0331
437.756	0.0337
438.072	0.0336
438.388	0.0335
438.704	0.0333
439.02	0.0335
439.336	0.0333
439.652	0.0335
439.968	0.0338
440.283	0.0336
440.599	0.0338
440.914	0.0336
441.23	0.0337
441.545	0.0337
441.86	0.0335
442.175	0.0335
442.491	0.0331
442.806	0.0327
443.121	0.0326
443.435	0.0323
443.75	0.0329
444.065	0.0323
444.38	0.0325
444.694	0.0325
445.009	0.0325
445.323	0.0327
445.638	0.0326
445.952	0.0319
446.266	0.0317
446.58	0.0314
446.894	0.0321
447.208	0.0309
447.522	0.0308
447.836	0.0319
448.15	0.0316
448.464	0.0313
448.777	0.0318
449.091	0.0313
449.404	0.0308
449.718	0.0305
450.031	0.0307
450.345	0.031
450.658	0.0308
450.971	0.031
451.284	0.0302
451.597	0.0308
451.91	0.0302
452.223	0.0306
452.535	0.0303
452.848	0.0304
453.161	0.0307
453.473	0.0304
453.786	0.0297
454.098	0.0299
454.411	0.0297
454.723	0.0303
455.035	0.0294
455.347	0.0295
455.659	0.0294
455.971	0.0297
456.283	0.0298
456.595	0.0295
456.907	0.0297
457.218	0.0299
457.53	0.0288
457.841	0.0286
458.153	0.0283
458.464	0.0281
458.776	0.0287
459.087	0.0284
459.398	0.0281
459.709	0.028
460.02	0.0288
460.331	0.0281
460.642	0.0279
460.953	0.0275
461.263	0.028
461.574	0.0267
461.885	0.0277
462.195	0.0269
462.506	0.0269
462.816	0.0272
463.126	0.0269
463.437	0.0268
463.747	0.0261
464.057	0.0257
464.367	0.0254
464.677	0.0255
464.987	0.0259
465.296	0.0253
465.606	0.0251
465.916	0.0247
466.225	0.0249
466.535	0.0243
466.844	0.0252
467.154	0.0258
467.463	0.0246
467.772	0.0241
468.081	0.0248
468.39	0.0245
468.699	0.0241
469.008	0.0233
469.317	0.0244
469.626	0.0243
469.935	0.0231
470.243	0.0235
470.552	0.0229
470.86	0.0229
471.169	0.023
471.477	0.0219
471.785	0.0216
472.093	0.0225
472.402	0.0218
472.71	0.0223
473.018	0.0216
473.326	0.0219
473.633	0.0216
473.941	0.0214
474.249	0.0212
474.556	0.0214
474.864	0.0209
475.171	0.0211
475.479	0.0207
475.786	0.0211
476.094	0.0201
476.401	0.0202
476.708	0.0204
477.015	0.0195
477.322	0.0186
477.629	0.0188
477.936	0.0194
478.242	0.0197
478.549	0.019
478.856	0.0191
479.162	0.0189
479.469	0.0191
479.775	0.018
480.081	0.0173
480.388	0.0173
480.694	0.0178
481	0.0175
481.306	0.0172
481.612	0.0178
481.918	0.0181
482.224	0.0183
482.53	0.018
482.835	0.0169
483.141	0.0175
483.446	0.0175
483.752	0.0164
484.057	0.016
484.363	0.016
484.668	0.0168
484.973	0.0156
485.278	0.0155
485.583	0.0148
485.888	0.0159
486.193	0.0145
486.498	0.0154
486.803	0.0149
487.107	0.0147
487.412	0.0131
487.717	0.0145
488.021	0.0155
488.325	0.014
488.63	0.0148
488.934	0.0143
489.238	0.0137
489.542	0.0137
489.846	0.0142
490.15	0.0135
490.454	0.0141
490.758	0.0129
491.062	0.0134
491.366	0.0125
491.669	0.0125
491.973	0.0128
492.276	0.0133
492.58	0.012
492.883	0.0129
493.186	0.0119
493.489	0.0126
493.792	0.0113
494.096	0.0116
494.399	0.0121
494.701	0.0114
495.004	0.0114
495.307	0.0111
495.61	0.0117
495.912	0.0118
496.215	0.0114
496.517	0.0115
496.82	0.0111
497.122	0.0107
497.424	0.0102
497.727	0.0102
498.029	0.0105
498.331	0.0102
498.633	0.0097
498.935	0.01
499.237	0.01
499.538	0.0102
499.84	0.0095
500.142	0.0097
500.443	0.0096
500.745	0.0094
501.046	0.0089
501.348	0.0087
501.649	0.0082
501.95	0.0082
502.251	0.0093
502.552	0.0084
502.853	0.0086
503.154	0.0093
503.455	0.0087
503.756	0.009
504.057	0.0078
504.357	0.0082
504.658	0.0085
504.958	0.0075
505.259	0.0077
505.559	0.007
505.859	0.007
506.16	0.0065
506.46	0.0082
506.76	0.0071
507.06	0.0063
507.36	0.0061
507.66	0.0076
507.96	0.0081
508.259	0.0076
508.559	0.0065
508.859	0.0074
509.158	0.0068
509.457	0.0047
509.757	0.0061
510.056	0.0069
510.355	0.0062
510.655	0.0054
510.954	0.006
511.253	0.0056
511.552	0.0066
511.851	0.0058
512.149	0.0061
512.448	0.0052
512.747	0.0056
513.045	0.0061
513.344	0.005
513.642	0.0051
513.941	0.006
514.239	0.0053
514.537	0.0054
514.836	0.005
515.134	0.0052
515.432	0.0055
515.73	0.0043
516.028	0.0041
516.326	0.0041
516.623	0.0045
516.921	0.0037
517.219	0.0061
517.516	0.0042
517.814	0.0052
518.111	0.0051
518.409	0.0042
518.706	0.0054
519.003	0.0044
519.3	0.0045
519.597	0.0051
519.894	0.0031
520.191	0.0054
520.488	0.0049
520.785	0.0028
521.082	0.0048
521.378	0.0049
521.675	0.0044
521.971	0.004
522.268	0.0049
522.564	0.0045
522.861	0.0045
523.157	0.0037
523.453	0.005
523.749	0.0044
524.045	0.0038
524.341	0.0042
524.637	0.0036
524.933	0.0046
525.229	0.004
525.524	0.0043
525.82	0.0037
526.115	0.0035
526.411	0.0034
526.706	0.0036
527.002	0.0028
527.297	0.0027
527.592	0.0045
527.887	0.0028
528.182	0.0025
528.477	0.0034
528.772	0.0029
529.067	0.0036
529.362	0.0043
529.657	0.0034
529.951	0.0037
530.246	0.0026
530.54	0.0033
530.835	0.0028
531.129	0.0033
531.423	0.0025
531.718	0.002
532.012	0.0033
532.306	0.0027
532.6	0.0027
532.894	0.003
533.188	0.0019
533.482	0.003
533.775	0.0018
534.069	0.0026
534.363	0.0024
534.656	0.0026
534.95	0.0028
535.243	0.0028
535.536	0.002
535.83	0.0019
536.123	0.0015
536.416	0.0026
536.709	0.003
537.002	0.004
537.295	0.0028
537.588	0.0032
537.881	0.003
538.173	0.0033
538.466	0.0026
538.759	0.003
539.051	0.0034
539.344	0.0039
539.636	0.0028
539.928	0.0043
540.22	0.0025
540.513	0.0032
540.805	0.0023
541.097	0.003
541.389	0.0029
541.681	0.0039
541.972	0.0027
542.264	0.0033
542.556	0.0042
542.847	0.0032
543.139	0.0047
543.431	0.0026
543.722	0.0018
544.013	0.003
544.305	0.0034
544.596	0.0037
544.887	0.0033
545.178	0.004
545.469	0.0037
545.76	0.0035
546.051	0.0041
546.342	0.0041
546.632	0.0024
546.923	0.0028
547.214	0.0029
547.504	0.0041
547.795	0.0031
548.085	0.0025
548.375	0.0043
548.666	0.004
548.956	0.0028
549.246	0.0037
549.536	0.0044
549.826	0.0045
550.116	0.0047
550.406	0.003
550.695	0.0031
550.985	0.0034
551.275	0.0035
551.564	0.0047
551.854	0.0044
552.143	0.0042
552.433	0.0036
552.722	0.0035
553.011	0.0041
553.3	0.0023
553.589	0.0043
553.879	0.0038
554.167	0.0034
554.456	0.0037
554.745	0.0044
555.034	0.0048
555.323	0.0039
555.611	0.0043
555.9	0.004
556.188	0.0031
556.477	0.0022
556.765	0.0036
557.053	0.0035
557.342	0.0036
557.63	0.0033
557.918	0.004
558.206	0.0038
558.494	0.0036
558.782	0.0036
559.069	0.005
559.357	0.0033
559.645	0.0038
559.932	0.0037
560.22	0.0041
560.507	0.0026
560.795	0.0024
561.082	0.0024
561.37	0.0034
561.657	0.0025
561.944	0.0022
562.231	0.0025
562.518	0.0029
562.805	0.0047
563.092	0.0024
563.379	0.0036
563.665	0.003
563.952	0.0038
564.239	0.0039
564.525	0.0035
564.811	0.0038
565.098	0.0031
565.384	0.004
565.67	0.0025
565.957	0.0026
566.243	0.0041
566.529	0.0032
566.815	0.0042
567.101	0.0037
567.387	0.0032
567.672	0.0031
567.958	0.0026
568.244	0.0025
568.529	0.0028
568.815	0.0032
569.1	0.0032
569.386	0.0039
569.671	0.0025
569.956	0.0034
570.242	0.0031
570.527	0.002
570.812	0.0024
571.097	0.002
571.382	0.0016
571.666	0.0018
571.951	0.0031
572.236	0.0018
572.521	0.0026
572.805	0.0033
573.09	0.0034
573.374	0.0024
573.659	0.0022
573.943	0.0028
574.227	0.003
574.511	0.0026
574.795	0.003
575.079	0.0031
575.363	0.002
575.647	0.0021
575.931	0.0033
576.215	0.0027
576.499	0.0024
576.782	0.0023
577.066	0.0028
577.349	0.0037
577.633	0.0037
577.916	0.0031
578.2	0.0031
578.483	0.0028
578.766	0.0032
579.049	0.0022
579.332	0.002
579.615	0.0029
579.898	0.0021
580.181	0.0015
580.464	0.0027
580.746	0.003
581.029	0.0031
581.312	0.0026
581.594	0.0023
581.877	0.0019
582.159	0.0033
582.441	0.0021
582.724	0.0023
583.006	0.0034
583.288	0.0027
583.57	0.0028
583.852	0.0038
584.134	0.0037
584.416	0.0023
584.697	0.0024
584.979	0.0027
585.261	0.0025
585.542	0.0028
585.824	0.0032
586.105	0.0032
586.387	0.0028
586.668	0.0031
586.949	0.004
587.231	0.0033
587.512	0.0028
587.793	0.0021
588.074	0.0027
588.355	0.0028
588.636	0.002
588.916	0.0024
589.197	0.002
589.478	0.0031
589.758	0.0028
590.039	0.0022
590.319	0.0016
590.6	0.0024
590.88	0.0021
591.16	0.002
591.441	0.0033
591.721	0.0027
592.001	0.0019
592.281	0.0019
592.561	0.003
592.841	0.003
593.12	0.002
593.4	0.0028
593.68	0.0025
593.959	0.0023
594.239	0.0022
594.518	0.0032
594.798	0.0031
595.077	0.0031
595.356	0.0026
595.636	0.0023
595.915	0.0019
596.194	0.0024
596.473	0.003
596.752	0.0025
