Data from 03 0.4 mM K2Cr2O7 0.25 M BQDS 1 M H2SO4 5 min_Absorbance_0258.txt Node
Date: Wed Dec 15 15:00:12 EST 2021
User: kwabilab-user
Spectrometer: HDX00518
Trigger mode: 0
Integration Time (sec): 5.000000E-2
Scans to average: 50
Nonlinearity correction enabled: false
Boxcar width: 0
Storing dark spectrum: false
XAxis mode: Wavelengths
Number of Pixels in Spectrum: 2068
>>>>>Begin Spectral Data<<<<<
195.27	-0.2485
195.642	0.0532
196.014	-0.2409
196.386	-0.2322
196.758	-0.0971
197.129	-0.01
197.501	-0.0366
197.872	0.0224
198.244	0.0032
198.615	0.0334
198.986	0.0198
199.357	0.0173
199.728	0.0394
200.099	0.0123
200.47	0.033
200.841	0.0236
201.212	0.0234
201.582	0.0289
201.953	0.0311
202.323	0.0227
202.694	0.021
203.064	0.0053
203.434	-0.001
203.804	0.0093
204.174	0.0151
204.544	0.0401
204.914	0.0085
205.284	0.0207
205.653	-0.0044
206.023	0.0072
206.393	0.0116
206.762	0.0178
207.131	0.0387
207.501	0.025
207.87	0.0342
208.239	0.013
208.608	0.0472
208.977	0.0134
209.346	0.0071
209.715	0.026
210.083	0.0255
210.452	0.0139
210.82	0.041
211.189	0.0265
211.557	0.0251
211.925	0.0001
212.294	0.0218
212.662	0.0271
213.03	0.0099
213.398	0.0358
213.766	0.0177
214.133	0.0265
214.501	0.0059
214.869	0.0157
215.236	0.0283
215.604	0.0523
215.971	0.0537
216.338	0.0308
216.705	0.0458
217.072	0.0431
217.439	0.0408
217.806	0.0586
218.173	0.0666
218.54	0.054
218.907	0.0621
219.273	0.0775
219.64	0.086
220.006	0.0786
220.373	0.0914
220.739	0.1103
221.105	0.1197
221.471	0.1252
221.837	0.1386
222.203	0.1785
222.569	0.18
222.935	0.2096
223.3	0.2425
223.666	0.2562
224.031	0.2743
224.397	0.2965
224.762	0.2988
225.127	0.3361
225.493	0.3565
225.858	0.3961
226.223	0.4158
226.588	0.4183
226.952	0.4323
227.317	0.469
227.682	0.4657
228.046	0.4867
228.411	0.4972
228.775	0.5122
229.14	0.5095
229.504	0.5319
229.868	0.5432
230.232	0.5565
230.596	0.5655
230.96	0.5785
231.324	0.5731
231.688	0.5852
232.052	0.5951
232.415	0.5886
232.779	0.5929
233.142	0.6093
233.505	0.5965
233.869	0.6029
234.232	0.603
234.595	0.6
234.958	0.6001
235.321	0.6125
235.684	0.5917
236.047	0.5934
236.409	0.5828
236.772	0.5937
237.134	0.5808
237.497	0.5737
237.859	0.5978
238.222	0.5785
238.584	0.5676
238.946	0.5683
239.308	0.5683
239.67	0.5605
240.032	0.5662
240.393	0.5666
240.755	0.5558
241.117	0.551
241.478	0.5442
241.84	0.541
242.201	0.5407
242.562	0.5387
242.924	0.5282
243.285	0.5253
243.646	0.5252
244.007	0.5252
244.368	0.5197
244.728	0.514
245.089	0.5192
245.45	0.5118
245.81	0.5096
246.171	0.5088
246.531	0.5032
246.891	0.4977
247.252	0.498
247.612	0.5003
247.972	0.4941
248.332	0.4888
248.692	0.4902
249.051	0.4861
249.411	0.4915
249.771	0.4831
250.13	0.4863
250.49	0.4816
250.849	0.4808
251.208	0.4786
251.568	0.4794
251.927	0.4751
252.286	0.4763
252.645	0.4727
253.004	0.4713
253.363	0.4667
253.721	0.4653
254.08	0.4672
254.439	0.4667
254.797	0.4677
255.155	0.4664
255.514	0.4627
255.872	0.4658
256.23	0.4592
256.588	0.4638
256.946	0.4638
257.304	0.4573
257.662	0.4592
258.02	0.459
258.377	0.4571
258.735	0.4535
259.093	0.4525
259.45	0.4527
259.807	0.4546
260.165	0.454
260.522	0.4486
260.879	0.4431
261.236	0.445
261.593	0.4449
261.95	0.4443
262.306	0.4388
262.663	0.4375
263.02	0.4399
263.376	0.437
263.733	0.4342
264.089	0.4352
264.445	0.4283
264.802	0.431
265.158	0.4263
265.514	0.4281
265.87	0.4279
266.226	0.4245
266.581	0.4257
266.937	0.4224
267.293	0.4232
267.648	0.4169
268.004	0.4165
268.359	0.4192
268.714	0.4144
269.07	0.4099
269.425	0.4053
269.78	0.4062
270.135	0.4032
270.49	0.3997
270.844	0.3994
271.199	0.3951
271.554	0.3945
271.908	0.3906
272.263	0.3929
272.617	0.3906
272.972	0.3851
273.326	0.3854
273.68	0.3822
274.034	0.3814
274.388	0.3767
274.742	0.3785
275.096	0.3735
275.45	0.3695
275.803	0.3679
276.157	0.3636
276.51	0.3626
276.864	0.3592
277.217	0.3596
277.571	0.3578
277.924	0.3497
278.277	0.3488
278.63	0.3435
278.983	0.3427
279.336	0.3418
279.688	0.3379
280.041	0.3328
280.394	0.3281
280.746	0.325
281.099	0.3227
281.451	0.3196
281.803	0.3182
282.156	0.316
282.508	0.3108
282.86	0.3095
283.212	0.3056
283.564	0.3011
283.916	0.2974
284.267	0.2926
284.619	0.2948
284.971	0.2885
285.322	0.2881
285.673	0.2831
286.025	0.2801
286.376	0.2778
286.727	0.2737
287.078	0.2701
287.429	0.2708
287.78	0.2638
288.131	0.2635
288.482	0.2594
288.833	0.2566
289.183	0.2538
289.534	0.2491
289.884	0.246
290.235	0.2437
290.585	0.2413
290.935	0.2361
291.285	0.2338
291.635	0.231
291.985	0.2298
292.335	0.2245
292.685	0.2232
293.035	0.2188
293.384	0.217
293.734	0.2137
294.083	0.2104
294.433	0.2081
294.782	0.2058
295.131	0.2004
295.48	0.1997
295.829	0.1963
296.179	0.1935
296.527	0.1895
296.876	0.1881
297.225	0.1839
297.574	0.1823
297.922	0.1795
298.271	0.1762
298.619	0.1738
298.968	0.1716
299.316	0.1686
299.664	0.1679
300.012	0.1641
300.36	0.1605
300.708	0.1594
301.056	0.1571
301.404	0.1541
301.752	0.1538
302.099	0.151
302.447	0.1487
302.794	0.1475
303.142	0.1444
303.489	0.1423
303.836	0.1404
304.183	0.1387
304.531	0.1377
304.878	0.1367
305.224	0.1343
305.571	0.1336
305.918	0.1316
306.265	0.1292
306.611	0.1281
306.958	0.127
307.304	0.1267
307.651	0.1249
307.997	0.1236
308.343	0.1226
308.689	0.1213
309.035	0.1209
309.381	0.1187
309.727	0.1185
310.073	0.1179
310.419	0.1168
310.764	0.1168
311.11	0.1157
311.455	0.1147
311.801	0.1141
312.146	0.113
312.491	0.1129
312.837	0.1128
313.182	0.1119
313.527	0.1122
313.872	0.1119
314.216	0.1118
314.561	0.1106
314.906	0.111
315.251	0.1118
315.595	0.1111
315.94	0.111
316.284	0.1112
316.628	0.111
316.972	0.1112
317.317	0.1111
317.661	0.1117
318.005	0.1116
318.348	0.1121
318.692	0.1121
319.036	0.1133
319.38	0.1132
319.723	0.1132
320.067	0.114
320.41	0.1145
320.754	0.1149
321.097	0.1145
321.44	0.1159
321.783	0.1161
322.126	0.1171
322.469	0.1173
322.812	0.1182
323.155	0.1191
323.498	0.1191
323.84	0.1195
324.183	0.1212
324.525	0.1216
324.868	0.1238
325.21	0.1236
325.552	0.1247
325.894	0.1252
326.236	0.1256
326.578	0.1269
326.92	0.1275
327.262	0.1281
327.604	0.1285
327.946	0.1295
328.287	0.1302
328.629	0.1319
328.97	0.1322
329.312	0.1339
329.653	0.1343
329.994	0.1361
330.335	0.137
330.676	0.1377
331.017	0.1389
331.358	0.1399
331.699	0.1412
332.04	0.1417
332.38	0.1428
332.721	0.1432
333.061	0.1446
333.402	0.1459
333.742	0.1464
334.083	0.147
334.423	0.1479
334.763	0.1491
335.103	0.1497
335.443	0.1513
335.783	0.1519
336.123	0.1524
336.462	0.1533
336.802	0.154
337.141	0.1548
337.481	0.1555
337.82	0.1566
338.16	0.1578
338.499	0.1589
338.838	0.159
339.177	0.1599
339.516	0.1606
339.855	0.1616
340.194	0.162
340.533	0.1619
340.872	0.1621
341.21	0.1643
341.549	0.1644
341.887	0.1652
342.226	0.1642
342.564	0.1651
342.902	0.166
343.24	0.1666
343.578	0.1674
343.916	0.1664
344.254	0.1671
344.592	0.1677
344.93	0.1677
345.268	0.1675
345.605	0.1675
345.943	0.1682
346.28	0.1682
346.618	0.1686
346.955	0.1686
347.292	0.1685
347.629	0.1689
347.966	0.168
348.303	0.1686
348.64	0.1695
348.977	0.1694
349.314	0.1693
349.65	0.1691
349.987	0.1692
350.324	0.168
350.66	0.1687
350.996	0.1689
351.333	0.1684
351.669	0.1671
352.005	0.168
352.341	0.1669
352.677	0.1665
353.013	0.1653
353.349	0.1649
353.685	0.1642
354.02	0.1638
354.356	0.1634
354.691	0.1619
355.027	0.1623
355.362	0.1608
355.697	0.1606
356.033	0.1602
356.368	0.1594
356.703	0.159
357.038	0.1584
357.373	0.1574
357.707	0.1578
358.042	0.1562
358.377	0.1557
358.711	0.1553
359.046	0.1538
359.38	0.1538
359.715	0.1536
360.049	0.1524
360.383	0.1511
360.717	0.1497
361.051	0.149
361.385	0.1486
361.719	0.1477
362.053	0.1465
362.387	0.145
362.72	0.1446
363.054	0.143
363.387	0.1424
363.721	0.1409
364.054	0.1397
364.387	0.1386
364.721	0.1368
365.054	0.1356
365.387	0.1346
365.72	0.1343
366.053	0.1326
366.385	0.1312
366.718	0.1311
367.051	0.1293
367.383	0.1289
367.716	0.1286
368.048	0.1275
368.381	0.127
368.713	0.1248
369.045	0.1245
369.377	0.1234
369.709	0.1234
370.041	0.1217
370.373	0.1203
370.705	0.1192
371.037	0.1181
371.368	0.1174
371.7	0.1167
372.031	0.1148
372.363	0.1143
372.694	0.113
373.025	0.1113
373.356	0.1103
373.688	0.1093
374.019	0.108
374.35	0.1066
374.68	0.1047
375.011	0.104
375.342	0.1022
375.673	0.1015
376.003	0.0997
376.334	0.0992
376.664	0.0979
376.995	0.0963
377.325	0.0954
377.655	0.0936
377.985	0.0929
378.315	0.0924
378.645	0.091
378.975	0.0905
379.305	0.089
379.635	0.0885
379.964	0.0879
380.294	0.0875
380.623	0.086
380.953	0.0845
381.282	0.0842
381.611	0.0838
381.941	0.0831
382.27	0.0812
382.599	0.081
382.928	0.0794
383.257	0.0788
383.585	0.0778
383.914	0.0763
384.243	0.0754
384.571	0.0742
384.9	0.0735
385.228	0.0715
385.557	0.0714
385.885	0.0703
386.213	0.0695
386.541	0.0682
386.869	0.0669
387.197	0.0653
387.525	0.0641
387.853	0.0642
388.181	0.0625
388.508	0.0616
388.836	0.0606
389.164	0.0607
389.491	0.0593
389.818	0.0576
390.146	0.0577
390.473	0.0566
390.8	0.0564
391.127	0.0551
391.454	0.0539
391.781	0.0542
392.108	0.0534
392.435	0.0521
392.761	0.0517
393.088	0.0515
393.415	0.0509
393.741	0.051
394.067	0.0509
394.394	0.0494
394.72	0.0488
395.046	0.0477
395.372	0.0475
395.698	0.0468
396.024	0.0459
396.35	0.0461
396.676	0.0444
397.001	0.0446
397.327	0.0437
397.653	0.043
397.978	0.0423
398.303	0.0417
398.629	0.0411
398.954	0.0402
399.279	0.0406
399.604	0.0399
399.929	0.0396
400.254	0.0388
400.579	0.0386
400.904	0.0379
401.229	0.0374
401.553	0.0373
401.878	0.0367
402.202	0.0373
402.527	0.0364
402.851	0.0362
403.175	0.035
403.5	0.0352
403.824	0.0345
404.148	0.0346
404.472	0.0341
404.796	0.0343
405.119	0.0338
405.443	0.0339
405.767	0.0331
406.09	0.0333
406.414	0.0329
406.737	0.0333
407.061	0.0328
407.384	0.0332
407.707	0.0327
408.03	0.0325
408.353	0.0323
408.676	0.032
408.999	0.0321
409.322	0.032
409.645	0.0323
409.968	0.0324
410.29	0.0322
410.613	0.0325
410.935	0.0306
411.258	0.0316
411.58	0.0308
411.902	0.0305
412.224	0.0306
412.546	0.0314
412.868	0.0317
413.19	0.0311
413.512	0.0311
413.834	0.0307
414.156	0.0317
414.477	0.0306
414.799	0.0313
415.121	0.0304
415.442	0.0309
415.763	0.03
416.085	0.0312
416.406	0.0306
416.727	0.0309
417.048	0.0313
417.369	0.0306
417.69	0.0302
418.011	0.0307
418.331	0.031
418.652	0.0312
418.973	0.0305
419.293	0.0304
419.614	0.0299
419.934	0.0315
420.254	0.0308
420.574	0.0298
420.895	0.0304
421.215	0.0303
421.535	0.0301
421.855	0.0295
422.174	0.0294
422.494	0.0297
422.814	0.0299
423.134	0.0305
423.453	0.0304
423.773	0.0306
424.092	0.0306
424.411	0.0303
424.731	0.0298
425.05	0.0308
425.369	0.0301
425.688	0.0305
426.007	0.0309
426.326	0.0306
426.644	0.0309
426.963	0.0307
427.282	0.0299
427.6	0.0306
427.919	0.03
428.237	0.0306
428.556	0.0311
428.874	0.0304
429.192	0.0302
429.51	0.03
429.828	0.0304
430.146	0.0303
430.464	0.0299
430.782	0.0299
431.1	0.0294
431.418	0.03
431.735	0.0301
432.053	0.0304
432.37	0.0301
432.688	0.0299
433.005	0.0297
433.322	0.031
433.639	0.031
433.957	0.0302
434.274	0.0303
434.591	0.0311
434.907	0.0302
435.224	0.0307
435.541	0.0306
435.858	0.0307
436.174	0.0303
436.491	0.0299
436.807	0.0296
437.124	0.0302
437.44	0.0302
437.756	0.0306
438.072	0.0297
438.388	0.0297
438.704	0.03
439.02	0.0298
439.336	0.0302
439.652	0.0301
439.968	0.0301
440.283	0.0303
440.599	0.03
440.914	0.0301
441.23	0.0299
441.545	0.0297
441.86	0.0295
442.175	0.0299
442.491	0.0298
442.806	0.0282
443.121	0.0282
443.435	0.0286
443.75	0.0284
444.065	0.0293
444.38	0.0292
444.694	0.0283
445.009	0.0284
445.323	0.0296
445.638	0.0286
445.952	0.0283
446.266	0.0278
446.58	0.0274
446.894	0.0282
447.208	0.0278
447.522	0.0271
447.836	0.0285
448.15	0.0273
448.464	0.0267
448.777	0.0278
449.091	0.0276
449.404	0.0272
449.718	0.0274
450.031	0.0265
450.345	0.0271
450.658	0.0269
450.971	0.027
451.284	0.0262
451.597	0.0271
451.91	0.0263
452.223	0.0267
452.535	0.0268
452.848	0.0263
453.161	0.0274
453.473	0.0266
453.786	0.0257
454.098	0.0267
454.411	0.0264
454.723	0.0266
455.035	0.0262
455.347	0.0256
455.659	0.0259
455.971	0.0258
456.283	0.027
456.595	0.0258
456.907	0.0262
457.218	0.0262
457.53	0.0256
457.841	0.0246
458.153	0.0249
458.464	0.0248
458.776	0.0251
459.087	0.0248
459.398	0.0244
459.709	0.0242
460.02	0.0252
460.331	0.0252
460.642	0.0235
460.953	0.0236
461.263	0.0243
461.574	0.0237
461.885	0.0245
462.195	0.0233
462.506	0.0236
462.816	0.0245
463.126	0.0233
463.437	0.0236
463.747	0.023
464.057	0.0221
464.367	0.0217
464.677	0.0228
464.987	0.022
465.296	0.0216
465.606	0.0217
465.916	0.0216
466.225	0.0214
466.535	0.0214
466.844	0.0218
467.154	0.0222
467.463	0.0216
467.772	0.0211
468.081	0.0215
468.39	0.0217
468.699	0.0208
469.008	0.0212
469.317	0.0217
469.626	0.0209
469.935	0.0203
470.243	0.0212
470.552	0.0201
470.86	0.021
471.169	0.0198
471.477	0.0193
471.785	0.0194
472.093	0.0193
472.402	0.0185
472.71	0.0183
473.018	0.0183
473.326	0.019
473.633	0.0192
473.941	0.0194
474.249	0.0191
474.556	0.0182
474.864	0.0182
475.171	0.0184
475.479	0.0181
475.786	0.0187
476.094	0.0178
476.401	0.0177
476.708	0.0174
477.015	0.0169
477.322	0.0166
477.629	0.017
477.936	0.0172
478.242	0.0163
478.549	0.0173
478.856	0.0164
479.162	0.0169
479.469	0.0158
479.775	0.0161
480.081	0.015
480.388	0.0157
480.694	0.016
481	0.0151
481.306	0.0156
481.612	0.0158
481.918	0.016
482.224	0.0156
482.53	0.0154
482.835	0.0151
483.141	0.0153
483.446	0.015
483.752	0.0138
484.057	0.0139
484.363	0.0141
484.668	0.0138
484.973	0.0137
485.278	0.0133
485.583	0.0128
485.888	0.013
486.193	0.0116
486.498	0.0129
486.803	0.013
487.107	0.0122
487.412	0.011
487.717	0.0123
488.021	0.0127
488.325	0.012
488.63	0.0114
488.934	0.0126
489.238	0.012
489.542	0.012
489.846	0.0116
490.15	0.012
490.454	0.0121
490.758	0.0111
491.062	0.0116
491.366	0.0106
491.669	0.0108
491.973	0.0107
492.276	0.0102
492.58	0.0103
492.883	0.0108
493.186	0.0098
493.489	0.0107
493.792	0.0097
494.096	0.0096
494.399	0.0099
494.701	0.0092
495.004	0.0093
495.307	0.0104
495.61	0.0094
495.912	0.0103
496.215	0.009
496.517	0.0091
496.82	0.0084
497.122	0.0088
497.424	0.0093
497.727	0.0087
498.029	0.0089
498.331	0.0088
498.633	0.0083
498.935	0.0086
499.237	0.0088
499.538	0.0081
499.84	0.0083
500.142	0.0081
500.443	0.0088
500.745	0.0081
501.046	0.0084
501.348	0.0076
501.649	0.0073
501.95	0.0068
502.251	0.008
502.552	0.007
502.853	0.0073
503.154	0.0076
503.455	0.007
503.756	0.0075
504.057	0.0068
504.357	0.0076
504.658	0.0068
504.958	0.0056
505.259	0.007
505.559	0.0055
505.859	0.0047
506.16	0.0058
506.46	0.0063
506.76	0.0056
507.06	0.0057
507.36	0.0053
507.66	0.0067
507.96	0.0075
508.259	0.0057
508.559	0.0055
508.859	0.0063
509.158	0.0061
509.457	0.0038
509.757	0.0051
510.056	0.0049
510.355	0.0061
510.655	0.0053
510.954	0.0047
511.253	0.0054
511.552	0.0051
511.851	0.0052
512.149	0.0048
512.448	0.0044
512.747	0.0049
513.045	0.0044
513.344	0.005
513.642	0.0052
513.941	0.0063
514.239	0.0048
514.537	0.0049
514.836	0.0045
515.134	0.0052
515.432	0.0037
515.73	0.0042
516.028	0.0037
516.326	0.0042
516.623	0.0032
516.921	0.004
517.219	0.0055
517.516	0.0038
517.814	0.0051
518.111	0.0042
518.409	0.0048
518.706	0.0048
519.003	0.003
519.3	0.0031
519.597	0.0042
519.894	0.0033
520.191	0.005
520.488	0.0048
520.785	0.0039
521.082	0.0053
521.378	0.0047
521.675	0.0034
521.971	0.0037
522.268	0.0032
522.564	0.0043
522.861	0.0045
523.157	0.0043
523.453	0.0037
523.749	0.0042
524.045	0.0042
524.341	0.0048
524.637	0.0042
524.933	0.0044
525.229	0.0034
525.524	0.0028
525.82	0.0036
526.115	0.0047
526.411	0.0038
526.706	0.0033
527.002	0.0043
527.297	0.0029
527.592	0.0037
527.887	0.003
528.182	0.0027
528.477	0.0035
528.772	0.0025
529.067	0.003
529.362	0.0033
529.657	0.0039
529.951	0.0038
530.246	0.0029
530.54	0.0033
530.835	0.0034
531.129	0.0037
531.423	0.0036
531.718	0.0041
532.012	0.003
532.306	0.004
532.6	0.0037
532.894	0.0032
533.188	0.0032
533.482	0.0033
533.775	0.0032
534.069	0.0035
534.363	0.0032
534.656	0.003
534.95	0.004
535.243	0.0026
535.536	0.0027
535.83	0.0027
536.123	0.003
536.416	0.0022
536.709	0.0038
537.002	0.0039
537.295	0.0033
537.588	0.0038
537.881	0.0027
538.173	0.0031
538.466	0.0032
538.759	0.003
539.051	0.0034
539.344	0.0033
539.636	0.003
539.928	0.004
540.22	0.0033
540.513	0.0042
540.805	0.0045
541.097	0.0045
541.389	0.0032
541.681	0.0039
541.972	0.0026
542.264	0.0034
542.556	0.0031
542.847	0.0028
543.139	0.0032
543.431	0.0026
543.722	0.0033
544.013	0.0033
544.305	0.0022
544.596	0.003
544.887	0.0027
545.178	0.0045
545.469	0.0026
545.76	0.0038
546.051	0.0027
546.342	0.0025
546.632	0.0043
546.923	0.004
547.214	0.003
547.504	0.0029
547.795	0.0033
548.085	0.0039
548.375	0.003
548.666	0.0041
548.956	0.0031
549.246	0.005
549.536	0.0048
549.826	0.006
550.116	0.0044
550.406	0.0048
550.695	0.0043
550.985	0.0038
551.275	0.0044
551.564	0.0056
551.854	0.005
552.143	0.0045
552.433	0.0052
552.722	0.0048
553.011	0.005
553.3	0.0041
553.589	0.0048
553.879	0.0048
554.167	0.0041
554.456	0.003
554.745	0.0049
555.034	0.0048
555.323	0.0037
555.611	0.004
555.9	0.0041
556.188	0.0031
556.477	0.0037
556.765	0.004
557.053	0.0033
557.342	0.0037
557.63	0.0036
557.918	0.0042
558.206	0.0056
558.494	0.0049
558.782	0.0046
559.069	0.0054
559.357	0.004
559.645	0.0042
559.932	0.0034
560.22	0.0038
560.507	0.0019
560.795	0.0028
561.082	0.0015
561.37	0.0032
561.657	0.0026
561.944	0.003
562.231	0.0029
562.518	0.0033
562.805	0.0041
563.092	0.0028
563.379	0.0034
563.665	0.004
563.952	0.0048
564.239	0.0044
564.525	0.0038
564.811	0.0039
565.098	0.0034
565.384	0.0037
565.67	0.0045
565.957	0.0039
566.243	0.0042
566.529	0.0047
566.815	0.0043
567.101	0.0057
567.387	0.0049
567.672	0.0041
567.958	0.0036
568.244	0.0027
568.529	0.0033
568.815	0.0046
569.1	0.0033
569.386	0.0043
569.671	0.0027
569.956	0.003
570.242	0.0032
570.527	0.0029
570.812	0.0032
571.097	0.0025
571.382	0.0019
571.666	0.0024
571.951	0.0033
572.236	0.0028
572.521	0.003
572.805	0.0039
573.09	0.0031
573.374	0.0018
573.659	0.0022
573.943	0.0026
574.227	0.0036
574.511	0.0029
574.795	0.0033
575.079	0.0027
575.363	0.0027
575.647	0.0021
575.931	0.0037
576.215	0.0032
576.499	0.0023
576.782	0.0027
577.066	0.0028
577.349	0.0034
577.633	0.0038
577.916	0.0026
578.2	0.0031
578.483	0.0033
578.766	0.0038
579.049	0.0027
579.332	0.0035
579.615	0.0025
579.898	0.0025
580.181	0.0025
580.464	0.0027
580.746	0.0031
581.029	0.003
581.312	0.0018
581.594	0.0015
581.877	0.0022
582.159	0.0035
582.441	0.0022
582.724	0.0043
583.006	0.0036
583.288	0.0037
583.57	0.0034
583.852	0.0036
584.134	0.0037
584.416	0.0027
584.697	0.0033
584.979	0.0025
585.261	0.0014
585.542	0.003
585.824	0.0036
586.105	0.0035
586.387	0.0035
586.668	0.0027
586.949	0.004
587.231	0.0034
587.512	0.0038
587.793	0.0033
588.074	0.0037
588.355	0.0035
588.636	0.0031
588.916	0.004
589.197	0.0026
589.478	0.0036
589.758	0.0023
590.039	0.0024
590.319	0.0023
590.6	0.0027
590.88	0.0031
591.16	0.0032
591.441	0.0037
591.721	0.0032
592.001	0.0028
592.281	0.003
592.561	0.0035
592.841	0.0024
593.12	0.0022
593.4	0.0029
593.68	0.003
593.959	0.0027
594.239	0.0041
594.518	0.0045
594.798	0.0038
595.077	0.0031
595.356	0.0035
595.636	0.0035
595.915	0.0031
596.194	0.004
596.473	0.0033
596.752	0.0033
