Data from 03 0.4 mM K2Cr2O7 0.25 M BQDS 1 M H2SO4 5 min_Absorbance_0224.txt Node
Date: Wed Dec 15 12:10:13 EST 2021
User: kwabilab-user
Spectrometer: HDX00518
Trigger mode: 0
Integration Time (sec): 5.000000E-2
Scans to average: 50
Nonlinearity correction enabled: false
Boxcar width: 0
Storing dark spectrum: false
XAxis mode: Wavelengths
Number of Pixels in Spectrum: 2068
>>>>>Begin Spectral Data<<<<<
195.27	-0.2592
195.642	-0.0833
196.014	-0.2391
196.386	-0.2025
196.758	-0.0777
197.129	-0.0016
197.501	-0.0338
197.872	0.0007
198.244	0.0006
198.615	0.0396
198.986	0.0135
199.357	0.0217
199.728	0.0079
200.099	0.0258
200.47	0.0128
200.841	0.0087
201.212	0.0102
201.582	0.0125
201.953	0.0139
202.323	0.021
202.694	-0.0011
203.064	0.0092
203.434	-0.002
203.804	0.0197
204.174	-0.0025
204.544	0.0229
204.914	-0.0073
205.284	0.0006
205.653	-0.0092
206.023	0.0205
206.393	0.0029
206.762	0.0062
207.131	0.0081
207.501	0.0203
207.87	0.0198
208.239	0.0206
208.608	0.023
208.977	0.0007
209.346	-0.0014
209.715	-0.0055
210.083	0.0122
210.452	0.0041
210.82	0.0189
211.189	-0.0049
211.557	0.0069
211.925	0.0183
212.294	-0.0091
212.662	0.0248
213.03	0.0027
213.398	-0.0024
213.766	0.0027
214.133	0.0232
214.501	0.0039
214.869	0.0057
215.236	0.018
215.604	0.0122
215.971	0.0292
216.338	0.0145
216.705	0.0387
217.072	0.0078
217.439	0.0507
217.806	0.0397
218.173	0.0633
218.54	0.032
218.907	0.0379
219.273	0.047
219.64	0.0669
220.006	0.0645
220.373	0.094
220.739	0.0876
221.105	0.1123
221.471	0.1186
221.837	0.1475
222.203	0.1657
222.569	0.18
222.935	0.1894
223.3	0.2249
223.666	0.2478
224.031	0.2702
224.397	0.2995
224.762	0.2953
225.127	0.3163
225.493	0.3304
225.858	0.3792
226.223	0.4022
226.588	0.399
226.952	0.4141
227.317	0.4597
227.682	0.4665
228.046	0.482
228.411	0.4957
228.775	0.5017
229.14	0.5106
229.504	0.5344
229.868	0.555
230.232	0.5425
230.596	0.5703
230.96	0.5711
231.324	0.5705
231.688	0.5864
232.052	0.5932
232.415	0.5822
232.779	0.5967
233.142	0.5928
233.505	0.6002
233.869	0.607
234.232	0.5956
234.595	0.5974
234.958	0.6083
235.321	0.5995
235.684	0.6041
236.047	0.6009
236.409	0.5896
236.772	0.5818
237.134	0.5877
237.497	0.5901
237.859	0.5747
238.222	0.5775
238.584	0.5732
238.946	0.569
239.308	0.5664
239.67	0.5637
240.032	0.563
240.393	0.5546
240.755	0.5488
241.117	0.5541
241.478	0.557
241.84	0.551
242.201	0.5436
242.562	0.5412
242.924	0.5381
243.285	0.5304
243.646	0.5263
244.007	0.5249
244.368	0.5252
244.728	0.5193
245.089	0.5153
245.45	0.5099
245.81	0.5167
246.171	0.5099
246.531	0.5079
246.891	0.5059
247.252	0.5001
247.612	0.5082
247.972	0.5011
248.332	0.4966
248.692	0.4978
249.051	0.4947
249.411	0.4904
249.771	0.4924
250.13	0.4896
250.49	0.4884
250.849	0.4881
251.208	0.4861
251.568	0.4874
251.927	0.4771
252.286	0.4863
252.645	0.4805
253.004	0.4833
253.363	0.4775
253.721	0.4745
254.08	0.4799
254.439	0.4755
254.797	0.477
255.155	0.4687
255.514	0.4759
255.872	0.4751
256.23	0.466
256.588	0.4679
256.946	0.4704
257.304	0.4691
257.662	0.4703
258.02	0.4651
258.377	0.4596
258.735	0.464
259.093	0.4627
259.45	0.4645
259.807	0.4629
260.165	0.4577
260.522	0.4638
260.879	0.4555
261.236	0.4538
261.593	0.4559
261.95	0.4559
262.306	0.4523
262.663	0.4466
263.02	0.4496
263.376	0.4472
263.733	0.444
264.089	0.4441
264.445	0.4459
264.802	0.4419
265.158	0.4378
265.514	0.4381
265.87	0.4373
266.226	0.4352
266.581	0.4321
266.937	0.4336
267.293	0.43
267.648	0.4227
268.004	0.4236
268.359	0.4249
268.714	0.4208
269.07	0.4226
269.425	0.4183
269.78	0.4151
270.135	0.4118
270.49	0.4094
270.844	0.4115
271.199	0.4059
271.554	0.4031
271.908	0.4011
272.263	0.4006
272.617	0.3977
272.972	0.3958
273.326	0.3947
273.68	0.3901
274.034	0.3869
274.388	0.388
274.742	0.3851
275.096	0.38
275.45	0.3779
275.803	0.3722
276.157	0.3709
276.51	0.3709
276.864	0.3694
277.217	0.3665
277.571	0.363
277.924	0.3569
278.277	0.3573
278.63	0.3504
278.983	0.3471
279.336	0.3474
279.688	0.344
280.041	0.3378
280.394	0.3363
280.746	0.333
281.099	0.3309
281.451	0.3291
281.803	0.323
282.156	0.3201
282.508	0.3177
282.86	0.3166
283.212	0.3117
283.564	0.3101
283.916	0.3031
284.267	0.3009
284.619	0.2985
284.971	0.2946
285.322	0.2934
285.673	0.289
286.025	0.285
286.376	0.2852
286.727	0.2775
287.078	0.2754
287.429	0.2733
287.78	0.2694
288.131	0.2669
288.482	0.263
288.833	0.2615
289.183	0.2571
289.534	0.2542
289.884	0.2513
290.235	0.2478
290.585	0.2442
290.935	0.2411
291.285	0.2394
291.635	0.2351
291.985	0.2331
292.335	0.2298
292.685	0.2261
293.035	0.2201
293.384	0.2195
293.734	0.2167
294.083	0.2135
294.433	0.2121
294.782	0.21
295.131	0.2049
295.48	0.2031
295.829	0.1998
296.179	0.1977
296.527	0.1928
296.876	0.1902
297.225	0.1875
297.574	0.1855
297.922	0.182
298.271	0.1801
298.619	0.1764
298.968	0.1752
299.316	0.1725
299.664	0.171
300.012	0.1674
300.36	0.1646
300.708	0.1626
301.056	0.1602
301.404	0.1582
301.752	0.1561
302.099	0.1546
302.447	0.1523
302.794	0.1493
303.142	0.1474
303.489	0.1453
303.836	0.1436
304.183	0.1428
304.531	0.1406
304.878	0.1389
305.224	0.1371
305.571	0.1352
305.918	0.1334
306.265	0.1308
306.611	0.1305
306.958	0.1307
307.304	0.1288
307.651	0.1277
307.997	0.126
308.343	0.1253
308.689	0.1243
309.035	0.1228
309.381	0.122
309.727	0.1207
310.073	0.1212
310.419	0.1195
310.764	0.1194
311.11	0.1178
311.455	0.1177
311.801	0.1176
312.146	0.1155
312.491	0.1161
312.837	0.1161
313.182	0.1145
313.527	0.1142
313.872	0.1138
314.216	0.1152
314.561	0.1139
314.906	0.1135
315.251	0.1146
315.595	0.1136
315.94	0.1134
316.284	0.1134
316.628	0.1144
316.972	0.114
317.317	0.1143
317.661	0.1147
318.005	0.1142
318.348	0.1153
318.692	0.1148
319.036	0.1154
319.38	0.1164
319.723	0.1154
320.067	0.1173
320.41	0.1174
320.754	0.1179
321.097	0.1173
321.44	0.1188
321.783	0.119
322.126	0.1204
322.469	0.1204
322.812	0.1214
323.155	0.1222
323.498	0.1223
323.84	0.1226
324.183	0.1238
324.525	0.1248
324.868	0.1268
325.21	0.127
325.552	0.1276
325.894	0.1286
326.236	0.1288
326.578	0.13
326.92	0.1311
327.262	0.1315
327.604	0.1322
327.946	0.1331
328.287	0.134
328.629	0.1353
328.97	0.1362
329.312	0.1373
329.653	0.1384
329.994	0.1397
330.335	0.1401
330.676	0.1416
331.017	0.1424
331.358	0.1436
331.699	0.1441
332.04	0.1455
332.38	0.1461
332.721	0.1472
333.061	0.148
333.402	0.1505
333.742	0.1506
334.083	0.1512
334.423	0.1522
334.763	0.1536
335.103	0.154
335.443	0.1549
335.783	0.1563
336.123	0.1563
336.462	0.1571
336.802	0.1582
337.141	0.1585
337.481	0.1597
337.82	0.1609
338.16	0.1613
338.499	0.1631
338.838	0.1634
339.177	0.1638
339.516	0.1648
339.855	0.1658
340.194	0.1665
340.533	0.1662
340.872	0.1671
341.21	0.1684
341.549	0.1683
341.887	0.1694
342.226	0.1689
342.564	0.1705
342.902	0.1704
343.24	0.1707
343.578	0.1715
343.916	0.1716
344.254	0.1716
344.592	0.1716
344.93	0.1728
345.268	0.1717
345.605	0.1718
345.943	0.1729
346.28	0.1732
346.618	0.173
346.955	0.1734
347.292	0.1735
347.629	0.1737
347.966	0.173
348.303	0.1736
348.64	0.174
348.977	0.1742
349.314	0.1738
349.65	0.1736
349.987	0.174
350.324	0.1733
350.66	0.1739
350.996	0.1731
351.333	0.1727
351.669	0.172
352.005	0.1722
352.341	0.1714
352.677	0.1713
353.013	0.1702
353.349	0.1698
353.685	0.1695
354.02	0.1682
354.356	0.1673
354.691	0.167
355.027	0.1662
355.362	0.1651
355.697	0.1647
356.033	0.1645
356.368	0.1641
356.703	0.1627
357.038	0.1629
357.373	0.1614
357.707	0.1616
358.042	0.1606
358.377	0.1592
358.711	0.1595
359.046	0.1582
359.38	0.1583
359.715	0.1582
360.049	0.1565
360.383	0.1549
360.717	0.154
361.051	0.153
361.385	0.1524
361.719	0.1519
362.053	0.1516
362.387	0.1488
362.72	0.1478
363.054	0.1469
363.387	0.1459
363.721	0.145
364.054	0.1436
364.387	0.1427
364.721	0.1412
365.054	0.1395
365.387	0.1381
365.72	0.1378
366.053	0.1357
366.385	0.1347
366.718	0.1338
367.051	0.1326
367.383	0.1319
367.716	0.1316
368.048	0.1304
368.381	0.1293
368.713	0.1281
369.045	0.1271
369.377	0.1263
369.709	0.126
370.041	0.1246
370.373	0.1233
370.705	0.1223
371.037	0.1214
371.368	0.1208
371.7	0.1186
372.031	0.1185
372.363	0.1167
372.694	0.1158
373.025	0.1142
373.356	0.1136
373.688	0.1123
374.019	0.1106
374.35	0.1089
374.68	0.1078
375.011	0.1061
375.342	0.1052
375.673	0.1036
376.003	0.1023
376.334	0.1013
376.664	0.1003
376.995	0.0987
377.325	0.0972
377.655	0.0963
377.985	0.0947
378.315	0.0941
378.645	0.0933
378.975	0.0923
379.305	0.0912
379.635	0.0909
379.964	0.0901
380.294	0.0896
380.623	0.088
380.953	0.0868
381.282	0.0867
381.611	0.0852
381.941	0.0851
382.27	0.0837
382.599	0.0829
382.928	0.0813
383.257	0.0807
383.585	0.0798
383.914	0.0778
384.243	0.0764
384.571	0.0762
384.9	0.0753
385.228	0.074
385.557	0.073
385.885	0.0712
386.213	0.0713
386.541	0.0692
386.869	0.0688
387.197	0.0672
387.525	0.0661
387.853	0.066
388.181	0.0638
388.508	0.0634
388.836	0.0623
389.164	0.0616
389.491	0.0608
389.818	0.0591
390.146	0.059
390.473	0.0577
390.8	0.058
391.127	0.0563
391.454	0.055
391.781	0.0553
392.108	0.0547
392.435	0.0535
392.761	0.0537
393.088	0.052
393.415	0.0525
393.741	0.0524
394.067	0.0512
394.394	0.0508
394.72	0.0497
395.046	0.0485
395.372	0.0483
395.698	0.0478
396.024	0.047
396.35	0.0466
396.676	0.0459
397.001	0.0452
397.327	0.0446
397.653	0.0433
397.978	0.043
398.303	0.0422
398.629	0.0412
398.954	0.0414
399.279	0.0414
399.604	0.0407
399.929	0.0405
400.254	0.0395
400.579	0.0394
400.904	0.0382
401.229	0.0382
401.553	0.0375
401.878	0.0377
402.202	0.0375
402.527	0.037
402.851	0.0372
403.175	0.036
403.5	0.0358
403.824	0.0353
404.148	0.0356
404.472	0.0352
404.796	0.0343
405.119	0.0344
405.443	0.0344
405.767	0.0339
406.09	0.0342
406.414	0.0333
406.737	0.0345
407.061	0.0335
407.384	0.0333
407.707	0.0329
408.03	0.0324
408.353	0.0328
408.676	0.033
408.999	0.0328
409.322	0.0326
409.645	0.0324
409.968	0.0327
410.29	0.0322
410.613	0.0324
410.935	0.0313
411.258	0.0326
411.58	0.0313
411.902	0.0319
412.224	0.0316
412.546	0.0314
412.868	0.0328
413.19	0.0314
413.512	0.0314
413.834	0.0316
414.156	0.0322
414.477	0.031
414.799	0.032
415.121	0.0309
415.442	0.0316
415.763	0.0305
416.085	0.0311
416.406	0.0306
416.727	0.0319
417.048	0.0316
417.369	0.0312
417.69	0.0311
418.011	0.0312
418.331	0.0308
418.652	0.0314
418.973	0.0309
419.293	0.0305
419.614	0.0306
419.934	0.0319
420.254	0.0314
420.574	0.03
420.895	0.0307
421.215	0.031
421.535	0.0306
421.855	0.03
422.174	0.0296
422.494	0.0303
422.814	0.0302
423.134	0.0307
423.453	0.0307
423.773	0.0314
424.092	0.0305
424.411	0.0305
424.731	0.0306
425.05	0.0306
425.369	0.031
425.688	0.0309
426.007	0.0306
426.326	0.0312
426.644	0.0303
426.963	0.0308
427.282	0.0304
427.6	0.0311
427.919	0.0309
428.237	0.0311
428.556	0.0311
428.874	0.0308
429.192	0.031
429.51	0.0304
429.828	0.0303
430.146	0.0305
430.464	0.0305
430.782	0.0304
431.1	0.0302
431.418	0.0305
431.735	0.0304
432.053	0.0314
432.37	0.0313
432.688	0.0298
433.005	0.0303
433.322	0.0316
433.639	0.0309
433.957	0.0306
434.274	0.0311
434.591	0.0314
434.907	0.0309
435.224	0.0305
435.541	0.0312
435.858	0.0321
436.174	0.0316
436.491	0.031
436.807	0.0302
437.124	0.0303
437.44	0.0306
437.756	0.0307
438.072	0.03
438.388	0.0305
438.704	0.0298
439.02	0.0294
439.336	0.0299
439.652	0.0305
439.968	0.03
440.283	0.03
440.599	0.0305
440.914	0.0297
441.23	0.03
441.545	0.0302
441.86	0.0301
442.175	0.0304
442.491	0.0295
442.806	0.0293
443.121	0.0284
443.435	0.0291
443.75	0.0295
444.065	0.0293
444.38	0.0298
444.694	0.0288
445.009	0.0291
445.323	0.0291
445.638	0.0292
445.952	0.0292
446.266	0.0282
446.58	0.0275
446.894	0.0288
447.208	0.0281
447.522	0.028
447.836	0.0282
448.15	0.0279
448.464	0.0276
448.777	0.0283
449.091	0.0277
449.404	0.0273
449.718	0.0284
450.031	0.027
450.345	0.028
450.658	0.027
450.971	0.0274
451.284	0.0269
451.597	0.0281
451.91	0.0272
452.223	0.0276
452.535	0.0267
452.848	0.027
453.161	0.0267
453.473	0.0271
453.786	0.0263
454.098	0.0269
454.411	0.0271
454.723	0.0269
455.035	0.0263
455.347	0.0256
455.659	0.027
455.971	0.027
456.283	0.0268
456.595	0.0267
456.907	0.0262
457.218	0.0264
457.53	0.0253
457.841	0.0248
458.153	0.0254
458.464	0.0252
458.776	0.025
459.087	0.0253
459.398	0.0251
459.709	0.024
460.02	0.0253
460.331	0.0246
460.642	0.0245
460.953	0.0237
461.263	0.0236
461.574	0.0239
461.885	0.0248
462.195	0.0231
462.506	0.0244
462.816	0.0248
463.126	0.0237
463.437	0.0237
463.747	0.0227
464.057	0.0223
464.367	0.0213
464.677	0.0225
464.987	0.0218
465.296	0.0215
465.606	0.0218
465.916	0.0214
466.225	0.0219
466.535	0.0223
466.844	0.0222
467.154	0.0225
467.463	0.0222
467.772	0.0209
468.081	0.0214
468.39	0.021
468.699	0.022
469.008	0.0216
469.317	0.0214
469.626	0.0214
469.935	0.021
470.243	0.0209
470.552	0.0205
470.86	0.0209
471.169	0.0208
471.477	0.0197
471.785	0.0194
472.093	0.019
472.402	0.0192
472.71	0.0194
473.018	0.0189
473.326	0.0191
473.633	0.0195
473.941	0.0184
474.249	0.0184
474.556	0.0179
474.864	0.0187
475.171	0.0187
475.479	0.0175
475.786	0.0188
476.094	0.0182
476.401	0.0182
476.708	0.0176
477.015	0.0172
477.322	0.0161
477.629	0.0165
477.936	0.017
478.242	0.0165
478.549	0.0172
478.856	0.0168
479.162	0.0167
479.469	0.0165
479.775	0.0169
480.081	0.0153
480.388	0.016
480.694	0.0154
481	0.0163
481.306	0.0157
481.612	0.0156
481.918	0.0165
482.224	0.0157
482.53	0.0164
482.835	0.0151
483.141	0.0152
483.446	0.0152
483.752	0.0138
484.057	0.0143
484.363	0.014
484.668	0.0148
484.973	0.0137
485.278	0.0133
485.583	0.0127
485.888	0.0124
486.193	0.0116
486.498	0.0137
486.803	0.0131
487.107	0.0113
487.412	0.0112
487.717	0.0118
488.021	0.0126
488.325	0.0118
488.63	0.0117
488.934	0.0122
489.238	0.0118
489.542	0.0112
489.846	0.0114
490.15	0.0119
490.454	0.0126
490.758	0.0116
491.062	0.0112
491.366	0.011
491.669	0.011
491.973	0.0106
492.276	0.0117
492.58	0.0106
492.883	0.0112
493.186	0.0103
493.489	0.0103
493.792	0.0097
494.096	0.0096
494.399	0.0104
494.701	0.0096
495.004	0.0094
495.307	0.0095
495.61	0.0094
495.912	0.0097
496.215	0.0091
496.517	0.01
496.82	0.009
497.122	0.0101
497.424	0.0096
497.727	0.0085
498.029	0.009
498.331	0.0086
498.633	0.0082
498.935	0.0079
499.237	0.0084
499.538	0.0078
499.84	0.0083
500.142	0.0084
500.443	0.0076
500.745	0.0073
501.046	0.0078
501.348	0.0069
501.649	0.007
501.95	0.0068
502.251	0.0077
502.552	0.0064
502.853	0.0078
503.154	0.0081
503.455	0.0071
503.756	0.0073
504.057	0.0065
504.357	0.0062
504.658	0.0062
504.958	0.0055
505.259	0.0062
505.559	0.0059
505.859	0.0056
506.16	0.0059
506.46	0.006
506.76	0.0049
507.06	0.0054
507.36	0.006
507.66	0.0063
507.96	0.0078
508.259	0.0061
508.559	0.0051
508.859	0.0055
509.158	0.0056
509.457	0.0055
509.757	0.0047
510.056	0.0048
510.355	0.005
510.655	0.0045
510.954	0.0045
511.253	0.0056
511.552	0.0043
511.851	0.004
512.149	0.005
512.448	0.0041
512.747	0.0037
513.045	0.0046
513.344	0.004
513.642	0.005
513.941	0.0056
514.239	0.0043
514.537	0.0044
514.836	0.0049
515.134	0.0038
515.432	0.0037
515.73	0.0036
516.028	0.0036
516.326	0.003
516.623	0.003
516.921	0.0036
517.219	0.005
517.516	0.0031
517.814	0.0041
518.111	0.0037
518.409	0.0043
518.706	0.0041
519.003	0.003
519.3	0.0034
519.597	0.0035
519.894	0.0036
520.191	0.0052
520.488	0.0046
520.785	0.0026
521.082	0.004
521.378	0.0044
521.675	0.0034
521.971	0.0038
522.268	0.0036
522.564	0.0054
522.861	0.005
523.157	0.0039
523.453	0.0044
523.749	0.0029
524.045	0.0025
524.341	0.0034
524.637	0.0029
524.933	0.0039
525.229	0.0031
525.524	0.0031
525.82	0.0032
526.115	0.0032
526.411	0.0039
526.706	0.0034
527.002	0.0034
527.297	0.0029
527.592	0.0036
527.887	0.0021
528.182	0.0019
528.477	0.004
528.772	0.0016
529.067	0.0026
529.362	0.0036
529.657	0.0034
529.951	0.0034
530.246	0.0032
530.54	0.0035
530.835	0.0037
531.129	0.0045
531.423	0.0034
531.718	0.0032
532.012	0.0023
532.306	0.0047
532.6	0.003
532.894	0.0028
533.188	0.003
533.482	0.0035
533.775	0.0028
534.069	0.0028
534.363	0.0023
534.656	0.0029
534.95	0.003
535.243	0.0026
535.536	0.003
535.83	0.0022
536.123	0.002
536.416	0.0027
536.709	0.0029
537.002	0.0037
537.295	0.0024
537.588	0.0027
537.881	0.0028
538.173	0.0021
538.466	0.0017
538.759	0.0027
539.051	0.0036
539.344	0.0031
539.636	0.0029
539.928	0.0044
540.22	0.002
540.513	0.0027
540.805	0.0039
541.097	0.0034
541.389	0.0035
541.681	0.004
541.972	0.0032
542.264	0.0039
542.556	0.0039
542.847	0.0033
543.139	0.0037
543.431	0.0022
543.722	0.0012
544.013	0.0031
544.305	0.0031
544.596	0.0034
544.887	0.0036
545.178	0.0037
545.469	0.0042
545.76	0.0042
546.051	0.0041
546.342	0.0045
546.632	0.0035
546.923	0.0037
547.214	0.0026
547.504	0.0041
547.795	0.003
548.085	0.0032
548.375	0.0032
548.666	0.0043
548.956	0.0031
549.246	0.0052
549.536	0.0039
549.826	0.0047
550.116	0.004
550.406	0.0034
550.695	0.0031
550.985	0.004
551.275	0.0046
551.564	0.0042
551.854	0.0051
552.143	0.0038
552.433	0.0043
552.722	0.0044
553.011	0.005
553.3	0.0034
553.589	0.0043
553.879	0.004
554.167	0.0037
554.456	0.0027
554.745	0.0043
555.034	0.004
555.323	0.003
555.611	0.0028
555.9	0.0034
556.188	0.0033
556.477	0.0033
556.765	0.0052
557.053	0.0035
557.342	0.0027
557.63	0.0037
557.918	0.0037
558.206	0.0048
558.494	0.0046
558.782	0.0042
559.069	0.0044
559.357	0.0036
559.645	0.0028
559.932	0.0028
560.22	0.0028
560.507	0.0016
560.795	0.0025
561.082	0.0016
561.37	0.0029
561.657	0.0014
561.944	0.002
562.231	0.003
562.518	0.0033
562.805	0.004
563.092	0.0027
563.379	0.0023
563.665	0.0032
563.952	0.0041
564.239	0.005
564.525	0.0035
564.811	0.0032
565.098	0.0032
565.384	0.003
565.67	0.0037
565.957	0.004
566.243	0.0039
566.529	0.004
566.815	0.0043
567.101	0.0028
567.387	0.0037
567.672	0.003
567.958	0.0023
568.244	0.002
568.529	0.0031
568.815	0.002
569.1	0.0025
569.386	0.0028
569.671	0.0022
569.956	0.0026
570.242	0.0028
570.527	0.0024
570.812	0.0021
571.097	0.0017
571.382	0.0012
571.666	0.0016
571.951	0.0022
572.236	0.0018
572.521	0.0035
572.805	0.0036
573.09	0.0024
573.374	0.0009
573.659	0.0013
573.943	0.0023
574.227	0.0022
574.511	0.0015
574.795	0.0029
575.079	0.0028
575.363	0.0021
575.647	0.0024
575.931	0.003
576.215	0.0025
576.499	0.0019
576.782	0.0014
577.066	0.0018
577.349	0.0031
577.633	0.0027
577.916	0.002
578.2	0.0024
578.483	0.0032
578.766	0.0039
579.049	0.0021
579.332	0.0029
579.615	0.0012
579.898	0.0017
580.181	0.003
580.464	0.0025
580.746	0.0023
581.029	0.0027
581.312	0.0007
581.594	0.0002
581.877	0.0024
582.159	0.0041
582.441	0.0019
582.724	0.0033
583.006	0.0037
583.288	0.003
583.57	0.0033
583.852	0.003
584.134	0.003
584.416	0.0022
584.697	0.0026
584.979	0.0014
585.261	0.0017
585.542	0.003
585.824	0.0026
586.105	0.0033
586.387	0.0037
586.668	0.0034
586.949	0.0037
587.231	0.0028
587.512	0.0031
587.793	0.0027
588.074	0.0033
588.355	0.0042
588.636	0.0028
588.916	0.0031
589.197	0.0029
589.478	0.0031
589.758	0.0017
590.039	0.0018
590.319	0.002
590.6	0.0019
590.88	0.0026
591.16	0.0028
591.441	0.0025
591.721	0.0024
592.001	0.0018
592.281	0.0031
592.561	0.002
592.841	0.0014
593.12	0.0021
593.4	0.003
593.68	0.0027
593.959	0.0026
594.239	0.004
594.518	0.0046
594.798	0.003
595.077	0.0027
595.356	0.0029
595.636	0.0033
595.915	0.0034
596.194	0.0036
596.473	0.0033
596.752	0.0026
597.031	0.0031
