Data from 03 0.4 mM K2Cr2O7 0.25 M BQDS 1 M H2SO4 5 min_Absorbance_0192.txt Node
Date: Wed Dec 15 09:30:12 EST 2021
User: kwabilab-user
Spectrometer: HDX00518
Trigger mode: 0
Integration Time (sec): 5.000000E-2
Scans to average: 50
Nonlinearity correction enabled: false
Boxcar width: 0
Storing dark spectrum: false
XAxis mode: Wavelengths
Number of Pixels in Spectrum: 2068
>>>>>Begin Spectral Data<<<<<
195.27	-0.2327
195.642	0.2846
196.014	-0.0877
196.386	0.0785
196.758	-0.1122
197.129	-0.0105
197.501	-0.0387
197.872	0.0008
198.244	0.0057
198.615	0.0283
198.986	0.0175
199.357	0.0053
199.728	0.048
200.099	0.0063
200.47	0.0119
200.841	0.0066
201.212	0.0147
201.582	0.0368
201.953	0.034
202.323	0.0192
202.694	0.0086
203.064	0.01
203.434	-0.0135
203.804	0.0145
204.174	0.0133
204.544	0.0131
204.914	0.0051
205.284	0.007
205.653	0.0084
206.023	0.0016
206.393	0.0196
206.762	0.013
207.131	0.0221
207.501	0.0288
207.87	0.0291
208.239	0.0101
208.608	0.0184
208.977	-0.0128
209.346	0.0021
209.715	0.0209
210.083	0.0185
210.452	0.0041
210.82	0.0191
211.189	0.0129
211.557	0.0066
211.925	0.0158
212.294	0.0113
212.662	0.012
213.03	0.0037
213.398	0.0066
213.766	0.0007
214.133	0.0303
214.501	0.0147
214.869	0.0028
215.236	0.0168
215.604	0.0228
215.971	0.0559
216.338	0.0305
216.705	0.0285
217.072	0.0279
217.439	0.0222
217.806	0.0239
218.173	0.0466
218.54	0.0589
218.907	0.0664
219.273	0.0613
219.64	0.0679
220.006	0.0738
220.373	0.0811
220.739	0.1169
221.105	0.1321
221.471	0.1202
221.837	0.1444
222.203	0.1675
222.569	0.1684
222.935	0.186
223.3	0.2268
223.666	0.2358
224.031	0.2503
224.397	0.3017
224.762	0.2863
225.127	0.3063
225.493	0.3482
225.858	0.3813
226.223	0.3865
226.588	0.4066
226.952	0.4367
227.317	0.4625
227.682	0.4817
228.046	0.4783
228.411	0.495
228.775	0.5156
229.14	0.5071
229.504	0.5321
229.868	0.5295
230.232	0.5531
230.596	0.5801
230.96	0.5751
231.324	0.5771
231.688	0.5729
232.052	0.6033
232.415	0.5879
232.779	0.5929
233.142	0.6021
233.505	0.6028
233.869	0.6119
234.232	0.6067
234.595	0.5986
234.958	0.5981
235.321	0.6084
235.684	0.5931
236.047	0.5985
236.409	0.5827
236.772	0.5903
237.134	0.5931
237.497	0.5917
237.859	0.584
238.222	0.5837
238.584	0.5853
238.946	0.5753
239.308	0.5743
239.67	0.5631
240.032	0.5707
240.393	0.5655
240.755	0.5614
241.117	0.5586
241.478	0.551
241.84	0.5522
242.201	0.5475
242.562	0.5482
242.924	0.5435
243.285	0.5295
243.646	0.5333
244.007	0.5287
244.368	0.534
244.728	0.5244
245.089	0.5265
245.45	0.5224
245.81	0.5229
246.171	0.5129
246.531	0.5143
246.891	0.5183
247.252	0.5045
247.612	0.5177
247.972	0.5114
248.332	0.5024
248.692	0.5046
249.051	0.5032
249.411	0.5035
249.771	0.5044
250.13	0.5003
250.49	0.4943
250.849	0.4968
251.208	0.4974
251.568	0.4927
251.927	0.4914
252.286	0.4942
252.645	0.4906
253.004	0.496
253.363	0.4869
253.721	0.49
254.08	0.4878
254.439	0.4814
254.797	0.4828
255.155	0.4778
255.514	0.4839
255.872	0.4875
256.23	0.4822
256.588	0.4782
256.946	0.483
257.304	0.4769
257.662	0.4798
258.02	0.4792
258.377	0.4746
258.735	0.4777
259.093	0.4776
259.45	0.4763
259.807	0.4747
260.165	0.4771
260.522	0.4729
260.879	0.4664
261.236	0.4709
261.593	0.4673
261.95	0.4608
262.306	0.464
262.663	0.4613
263.02	0.4642
263.376	0.4594
263.733	0.4536
264.089	0.455
264.445	0.4542
264.802	0.4517
265.158	0.4497
265.514	0.4509
265.87	0.4469
266.226	0.4472
266.581	0.4448
266.937	0.4422
267.293	0.4432
267.648	0.4411
268.004	0.4368
268.359	0.4348
268.714	0.4321
269.07	0.4308
269.425	0.4289
269.78	0.4263
270.135	0.4271
270.49	0.4221
270.844	0.4217
271.199	0.418
271.554	0.4124
271.908	0.4124
272.263	0.4121
272.617	0.409
272.972	0.4036
273.326	0.4022
273.68	0.4001
274.034	0.4009
274.388	0.3982
274.742	0.3949
275.096	0.3873
275.45	0.3878
275.803	0.3857
276.157	0.3822
276.51	0.379
276.864	0.3774
277.217	0.375
277.571	0.3724
277.924	0.3704
278.277	0.3654
278.63	0.361
278.983	0.3562
279.336	0.3562
279.688	0.3513
280.041	0.3482
280.394	0.3425
280.746	0.3391
281.099	0.3391
281.451	0.3344
281.803	0.3328
282.156	0.3265
282.508	0.323
282.86	0.3197
283.212	0.3193
283.564	0.3129
283.916	0.3098
284.267	0.3054
284.619	0.3061
284.971	0.3021
285.322	0.3008
285.673	0.2953
286.025	0.2911
286.376	0.2884
286.727	0.2843
287.078	0.2803
287.429	0.2795
287.78	0.2737
288.131	0.2724
288.482	0.2677
288.833	0.266
289.183	0.2629
289.534	0.26
289.884	0.257
290.235	0.2532
290.585	0.2501
290.935	0.247
291.285	0.2451
291.635	0.2409
291.985	0.237
292.335	0.2346
292.685	0.2317
293.035	0.2285
293.384	0.2244
293.734	0.2222
294.083	0.2194
294.433	0.2174
294.782	0.2153
295.131	0.2102
295.48	0.2084
295.829	0.204
296.179	0.2026
296.527	0.1975
296.876	0.1968
297.225	0.1917
297.574	0.1902
297.922	0.1885
298.271	0.1841
298.619	0.1814
298.968	0.1801
299.316	0.1773
299.664	0.1745
300.012	0.1726
300.36	0.1694
300.708	0.1672
301.056	0.1643
301.404	0.1618
301.752	0.1598
302.099	0.1574
302.447	0.1564
302.794	0.1538
303.142	0.1518
303.489	0.1491
303.836	0.1482
304.183	0.1463
304.531	0.1447
304.878	0.1423
305.224	0.1409
305.571	0.1394
305.918	0.1378
306.265	0.1347
306.611	0.1342
306.958	0.1339
307.304	0.1327
307.651	0.1312
307.997	0.1297
308.343	0.1289
308.689	0.1275
309.035	0.1272
309.381	0.1255
309.727	0.1247
310.073	0.1241
310.419	0.1229
310.764	0.1234
311.11	0.1221
311.455	0.1211
311.801	0.1206
312.146	0.12
312.491	0.1201
312.837	0.1193
313.182	0.1184
313.527	0.1185
313.872	0.1186
314.216	0.1179
314.561	0.1175
314.906	0.1171
315.251	0.1178
315.595	0.1178
315.94	0.1175
316.284	0.118
316.628	0.117
316.972	0.1182
317.317	0.1177
317.661	0.118
318.005	0.1185
318.348	0.1187
318.692	0.1186
319.036	0.1194
319.38	0.1205
319.723	0.1195
320.067	0.121
320.41	0.121
320.754	0.122
321.097	0.121
321.44	0.1233
321.783	0.1233
322.126	0.1246
322.469	0.1247
322.812	0.1255
323.155	0.1263
323.498	0.1271
323.84	0.1272
324.183	0.1288
324.525	0.1298
324.868	0.1309
325.21	0.1313
325.552	0.1318
325.894	0.1335
326.236	0.1331
326.578	0.1343
326.92	0.1358
327.262	0.1359
327.604	0.1371
327.946	0.138
328.287	0.1389
328.629	0.1402
328.97	0.1401
329.312	0.1414
329.653	0.1424
329.994	0.1437
330.335	0.1441
330.676	0.1461
331.017	0.1471
331.358	0.1478
331.699	0.1492
332.04	0.1504
332.38	0.1518
332.721	0.1522
333.061	0.1531
333.402	0.1551
333.742	0.1552
334.083	0.156
334.423	0.1573
334.763	0.1582
335.103	0.1587
335.443	0.1597
335.783	0.1608
336.123	0.1611
336.462	0.163
336.802	0.1634
337.141	0.164
337.481	0.165
337.82	0.1657
338.16	0.1669
338.499	0.1682
338.838	0.1686
339.177	0.1688
339.516	0.1702
339.855	0.171
340.194	0.1719
340.533	0.1715
340.872	0.1725
341.21	0.1736
341.549	0.1735
341.887	0.1745
342.226	0.1744
342.564	0.1754
342.902	0.1759
343.24	0.1763
343.578	0.1772
343.916	0.176
344.254	0.1776
344.592	0.1776
344.93	0.1782
345.268	0.1771
345.605	0.1782
345.943	0.1781
346.28	0.1781
346.618	0.1775
346.955	0.1786
347.292	0.1787
347.629	0.1789
347.966	0.1784
348.303	0.1788
348.64	0.1789
348.977	0.1786
349.314	0.1793
349.65	0.1793
349.987	0.1792
350.324	0.1789
350.66	0.1791
350.996	0.178
351.333	0.1783
351.669	0.1785
352.005	0.1773
352.341	0.177
352.677	0.1758
353.013	0.1756
353.349	0.1751
353.685	0.1739
354.02	0.1736
354.356	0.1729
354.691	0.1721
355.027	0.172
355.362	0.1707
355.697	0.1699
356.033	0.1692
356.368	0.1686
356.703	0.1684
357.038	0.1678
357.373	0.1662
357.707	0.166
358.042	0.1655
358.377	0.1647
358.711	0.1644
359.046	0.1628
359.38	0.1623
359.715	0.162
360.049	0.1609
360.383	0.1591
360.717	0.1589
361.051	0.1582
361.385	0.1578
361.719	0.1559
362.053	0.1557
362.387	0.1529
362.72	0.1535
363.054	0.1518
363.387	0.15
363.721	0.1494
364.054	0.148
364.387	0.1463
364.721	0.1452
365.054	0.1441
365.387	0.1426
365.72	0.1424
366.053	0.1412
366.385	0.1387
366.718	0.1381
367.051	0.1364
367.383	0.136
367.716	0.1358
368.048	0.1344
368.381	0.1342
368.713	0.1323
369.045	0.1319
369.377	0.1314
369.709	0.1299
370.041	0.1287
370.373	0.1272
370.705	0.1264
371.037	0.1254
371.368	0.1241
371.7	0.1225
372.031	0.1216
372.363	0.1202
372.694	0.1199
373.025	0.1172
373.356	0.1167
373.688	0.1151
374.019	0.1143
374.35	0.1118
374.68	0.1111
375.011	0.1089
375.342	0.1075
375.673	0.1066
376.003	0.1051
376.334	0.1053
376.664	0.1033
376.995	0.1023
377.325	0.1006
377.655	0.0988
377.985	0.0985
378.315	0.0975
378.645	0.0966
378.975	0.0954
379.305	0.0939
379.635	0.0942
379.964	0.0927
380.294	0.092
380.623	0.0905
380.953	0.0896
381.282	0.0893
381.611	0.0883
381.941	0.0881
382.27	0.0861
382.599	0.0858
382.928	0.0842
383.257	0.083
383.585	0.0823
383.914	0.0805
384.243	0.0799
384.571	0.0783
384.9	0.0776
385.228	0.0759
385.557	0.0755
385.885	0.0744
386.213	0.0734
386.541	0.072
386.869	0.0708
387.197	0.0697
387.525	0.069
387.853	0.0675
388.181	0.0668
388.508	0.0655
388.836	0.0643
389.164	0.0635
389.491	0.0623
389.818	0.0614
390.146	0.061
390.473	0.0594
390.8	0.0599
391.127	0.0576
391.454	0.0577
391.781	0.0569
392.108	0.0564
392.435	0.0555
392.761	0.0548
393.088	0.0543
393.415	0.054
393.741	0.0538
394.067	0.0529
394.394	0.0527
394.72	0.0513
395.046	0.0508
395.372	0.0502
395.698	0.0494
396.024	0.0485
396.35	0.0484
396.676	0.0474
397.001	0.0465
397.327	0.0456
397.653	0.0451
397.978	0.0449
398.303	0.0437
398.629	0.0431
398.954	0.043
399.279	0.0433
399.604	0.0417
399.929	0.0416
400.254	0.0406
400.579	0.0404
400.904	0.0394
401.229	0.0393
401.553	0.0393
401.878	0.0392
402.202	0.0385
402.527	0.0377
402.851	0.0377
403.175	0.0369
403.5	0.0376
403.824	0.0362
404.148	0.0362
404.472	0.0364
404.796	0.0358
405.119	0.0357
405.443	0.0352
405.767	0.0355
406.09	0.0352
406.414	0.0344
406.737	0.0349
407.061	0.0347
407.384	0.0347
407.707	0.0342
408.03	0.034
408.353	0.0335
408.676	0.0338
408.999	0.0338
409.322	0.0335
409.645	0.0331
409.968	0.0333
410.29	0.0336
410.613	0.0337
410.935	0.0327
411.258	0.0332
411.58	0.0323
411.902	0.0329
412.224	0.0321
412.546	0.0329
412.868	0.0333
413.19	0.0321
413.512	0.0329
413.834	0.0322
414.156	0.033
414.477	0.0321
414.799	0.033
415.121	0.0319
415.442	0.0321
415.763	0.0322
416.085	0.0323
416.406	0.0322
416.727	0.0327
417.048	0.0325
417.369	0.032
417.69	0.0319
418.011	0.0321
418.331	0.0319
418.652	0.0322
418.973	0.0319
419.293	0.0317
419.614	0.0312
419.934	0.0326
420.254	0.0317
420.574	0.0316
420.895	0.0313
421.215	0.0316
421.535	0.0313
421.855	0.0308
422.174	0.0305
422.494	0.0313
422.814	0.0313
423.134	0.0318
423.453	0.0322
423.773	0.0323
424.092	0.0324
424.411	0.0318
424.731	0.0322
425.05	0.0319
425.369	0.0317
425.688	0.032
426.007	0.0318
426.326	0.0322
426.644	0.032
426.963	0.0315
427.282	0.0316
427.6	0.0321
427.919	0.0315
428.237	0.0324
428.556	0.0321
428.874	0.0316
429.192	0.0317
429.51	0.0316
429.828	0.0317
430.146	0.0316
430.464	0.0315
430.782	0.0312
431.1	0.0311
431.418	0.0316
431.735	0.0311
432.053	0.0314
432.37	0.0314
432.688	0.0311
433.005	0.0311
433.322	0.0324
433.639	0.0317
433.957	0.0314
434.274	0.032
434.591	0.032
434.907	0.0314
435.224	0.0312
435.541	0.0322
435.858	0.0323
436.174	0.0323
436.491	0.0309
436.807	0.031
437.124	0.0315
437.44	0.0313
437.756	0.0318
438.072	0.0312
438.388	0.0313
438.704	0.0314
439.02	0.0311
439.336	0.031
439.652	0.0317
439.968	0.0311
440.283	0.0314
440.599	0.0314
440.914	0.031
441.23	0.0309
441.545	0.0311
441.86	0.0313
442.175	0.0312
442.491	0.0311
442.806	0.031
443.121	0.0296
443.435	0.03
443.75	0.0299
444.065	0.0294
444.38	0.0305
444.694	0.0298
445.009	0.0299
445.323	0.0297
445.638	0.0302
445.952	0.0298
446.266	0.0297
446.58	0.0288
446.894	0.0296
447.208	0.0293
447.522	0.0291
447.836	0.0299
448.15	0.0287
448.464	0.0284
448.777	0.0295
449.091	0.0284
449.404	0.0286
449.718	0.029
450.031	0.0287
450.345	0.0284
450.658	0.0277
450.971	0.0289
451.284	0.0283
451.597	0.0288
451.91	0.0279
452.223	0.0285
452.535	0.0278
452.848	0.0278
453.161	0.0278
453.473	0.0281
453.786	0.0274
454.098	0.0279
454.411	0.0272
454.723	0.0275
455.035	0.0276
455.347	0.0267
455.659	0.0276
455.971	0.0275
456.283	0.0282
456.595	0.0277
456.907	0.0279
457.218	0.0278
457.53	0.026
457.841	0.0264
458.153	0.0262
458.464	0.0252
458.776	0.026
459.087	0.026
459.398	0.0259
459.709	0.0253
460.02	0.0262
460.331	0.0258
460.642	0.0259
460.953	0.0246
461.263	0.0252
461.574	0.0247
461.885	0.0256
462.195	0.0244
462.506	0.0247
462.816	0.0254
463.126	0.0243
463.437	0.024
463.747	0.0241
464.057	0.0223
464.367	0.0224
464.677	0.0232
464.987	0.0234
465.296	0.0224
465.606	0.0223
465.916	0.0219
466.225	0.0223
466.535	0.0229
466.844	0.0234
467.154	0.0228
467.463	0.0233
467.772	0.0218
468.081	0.0228
468.39	0.0215
468.699	0.0224
469.008	0.0219
469.317	0.0221
469.626	0.0218
469.935	0.0212
470.243	0.0217
470.552	0.0213
470.86	0.0216
471.169	0.0205
471.477	0.0202
471.785	0.0203
472.093	0.02
472.402	0.0197
472.71	0.0201
473.018	0.0197
473.326	0.0199
473.633	0.0204
473.941	0.0193
474.249	0.0188
474.556	0.0192
474.864	0.0194
475.171	0.0197
475.479	0.0189
475.786	0.0193
476.094	0.0191
476.401	0.0186
476.708	0.0185
477.015	0.018
477.322	0.0176
477.629	0.0174
477.936	0.0177
478.242	0.018
478.549	0.0175
478.856	0.0172
479.162	0.0175
479.469	0.017
479.775	0.0172
480.081	0.0164
480.388	0.016
480.694	0.0169
481	0.0165
481.306	0.016
481.612	0.0172
481.918	0.0169
482.224	0.0162
482.53	0.0163
482.835	0.0164
483.141	0.0162
483.446	0.016
483.752	0.0152
484.057	0.0152
484.363	0.0149
484.668	0.0151
484.973	0.0143
485.278	0.0136
485.583	0.0132
485.888	0.0142
486.193	0.0125
486.498	0.0135
486.803	0.0143
487.107	0.0133
487.412	0.012
487.717	0.0133
488.021	0.0128
488.325	0.012
488.63	0.013
488.934	0.0129
489.238	0.012
489.542	0.0123
489.846	0.0126
490.15	0.012
490.454	0.0125
490.758	0.0116
491.062	0.0121
491.366	0.012
491.669	0.0114
491.973	0.0115
492.276	0.0114
492.58	0.0109
492.883	0.0114
493.186	0.0094
493.489	0.0115
493.792	0.0098
494.096	0.0095
494.399	0.0105
494.701	0.0101
495.004	0.0098
495.307	0.0104
495.61	0.0106
495.912	0.01
496.215	0.01
496.517	0.0104
496.82	0.0097
497.122	0.0096
497.424	0.0099
497.727	0.0094
498.029	0.0089
498.331	0.0093
498.633	0.0091
498.935	0.0085
499.237	0.0095
499.538	0.009
499.84	0.0087
500.142	0.0075
500.443	0.0081
500.745	0.0081
501.046	0.0074
501.348	0.0074
501.649	0.0074
501.95	0.008
502.251	0.0079
502.552	0.0071
502.853	0.0077
503.154	0.0086
503.455	0.0071
503.756	0.008
504.057	0.0059
504.357	0.0073
504.658	0.0065
504.958	0.0066
505.259	0.0065
505.559	0.0063
505.859	0.0054
506.16	0.0057
506.46	0.0065
506.76	0.0059
507.06	0.006
507.36	0.0058
507.66	0.0064
507.96	0.007
508.259	0.006
508.559	0.0052
508.859	0.0062
509.158	0.0064
509.457	0.0051
509.757	0.0053
510.056	0.0055
510.355	0.0052
510.655	0.0055
510.954	0.0052
511.253	0.0048
511.552	0.0056
511.851	0.0047
512.149	0.005
512.448	0.0051
512.747	0.005
513.045	0.0044
513.344	0.0046
513.642	0.0043
513.941	0.0049
514.239	0.004
514.537	0.0044
514.836	0.0057
515.134	0.0049
515.432	0.0048
515.73	0.005
516.028	0.0041
516.326	0.0034
516.623	0.0034
516.921	0.0043
517.219	0.0039
517.516	0.0033
517.814	0.004
518.111	0.0036
518.409	0.0049
518.706	0.0046
519.003	0.0032
519.3	0.0032
519.597	0.0039
519.894	0.0037
520.191	0.005
520.488	0.0041
520.785	0.0034
521.082	0.0041
521.378	0.004
521.675	0.0027
521.971	0.0035
522.268	0.0047
522.564	0.0043
522.861	0.0038
523.157	0.0041
523.453	0.0036
523.749	0.0038
524.045	0.0034
524.341	0.0039
524.637	0.0037
524.933	0.0041
525.229	0.0033
525.524	0.0034
525.82	0.0035
526.115	0.0037
526.411	0.0032
526.706	0.003
527.002	0.0032
527.297	0.0023
527.592	0.0038
527.887	0.0027
528.182	0.0019
528.477	0.0036
528.772	0.0028
529.067	0.0036
529.362	0.0039
529.657	0.0039
529.951	0.0033
530.246	0.0029
530.54	0.0043
530.835	0.0031
531.129	0.0031
531.423	0.0033
531.718	0.0023
532.012	0.0035
532.306	0.0031
532.6	0.0028
532.894	0.0031
533.188	0.0033
533.482	0.003
533.775	0.0022
534.069	0.0036
534.363	0.0026
534.656	0.0022
534.95	0.0025
535.243	0.0027
535.536	0.0022
535.83	0.003
536.123	0.0022
536.416	0.002
536.709	0.003
537.002	0.0039
537.295	0.0026
537.588	0.0035
537.881	0.0024
538.173	0.0035
538.466	0.0022
538.759	0.0029
539.051	0.0034
539.344	0.0037
539.636	0.0029
539.928	0.0042
540.22	0.0021
540.513	0.0025
540.805	0.0039
541.097	0.0033
541.389	0.003
541.681	0.0036
541.972	0.0033
542.264	0.0036
542.556	0.0042
542.847	0.0035
543.139	0.0041
543.431	0.0037
543.722	0.0023
544.013	0.0032
544.305	0.0028
544.596	0.0026
544.887	0.0034
545.178	0.0044
545.469	0.0036
545.76	0.0046
546.051	0.004
546.342	0.0049
546.632	0.0031
546.923	0.0031
547.214	0.0025
547.504	0.0034
547.795	0.0023
548.085	0.0034
548.375	0.0029
548.666	0.0042
548.956	0.0029
549.246	0.0046
549.536	0.0043
549.826	0.0046
550.116	0.005
550.406	0.0033
550.695	0.0045
550.985	0.0035
551.275	0.0049
551.564	0.0046
551.854	0.0049
552.143	0.0037
552.433	0.0041
552.722	0.0042
553.011	0.0039
553.3	0.0033
553.589	0.005
553.879	0.003
554.167	0.0032
554.456	0.0038
554.745	0.0039
555.034	0.0043
555.323	0.0034
555.611	0.0029
555.9	0.0035
556.188	0.0027
556.477	0.003
556.765	0.0038
557.053	0.0037
557.342	0.0023
557.63	0.0035
557.918	0.0032
558.206	0.0038
558.494	0.0036
558.782	0.0043
559.069	0.0059
559.357	0.0037
559.645	0.0042
559.932	0.0042
560.22	0.0033
560.507	0.002
560.795	0.0026
561.082	0.002
561.37	0.0028
561.657	0.0024
561.944	0.0029
562.231	0.0024
562.518	0.0032
562.805	0.0032
563.092	0.003
563.379	0.0027
563.665	0.0034
563.952	0.0044
564.239	0.0043
564.525	0.0035
564.811	0.0035
565.098	0.0035
565.384	0.0037
565.67	0.0045
565.957	0.0039
566.243	0.0035
566.529	0.0035
566.815	0.0037
567.101	0.0034
567.387	0.0033
567.672	0.0035
567.958	0.0021
568.244	0.0025
568.529	0.0027
568.815	0.003
569.1	0.0031
569.386	0.0029
569.671	0.0028
569.956	0.0026
570.242	0.0023
570.527	0.0023
570.812	0.0032
571.097	0.0019
571.382	0.0012
571.666	0.0016
571.951	0.0028
572.236	0.0017
572.521	0.0034
572.805	0.0035
573.09	0.0025
573.374	0.0023
573.659	0.0017
573.943	0.0028
574.227	0.0023
574.511	0.0021
574.795	0.0028
575.079	0.0024
575.363	0.0022
575.647	0.0021
575.931	0.0035
576.215	0.003
576.499	0.0024
576.782	0.0027
577.066	0.0026
577.349	0.0027
577.633	0.0031
577.916	0.0022
578.2	0.0028
578.483	0.0038
578.766	0.0033
579.049	0.0028
579.332	0.0036
579.615	0.0021
579.898	0.0021
580.181	0.0029
580.464	0.0024
580.746	0.0027
581.029	0.0025
581.312	0.0011
581.594	0.0002
581.877	0.0021
582.159	0.0036
582.441	0.0011
582.724	0.0027
583.006	0.0031
583.288	0.0024
583.57	0.0031
583.852	0.0038
584.134	0.0028
584.416	0.0026
584.697	0.0026
584.979	0.0017
585.261	0.0017
585.542	0.0025
585.824	0.0028
586.105	0.003
586.387	0.0032
586.668	0.003
586.949	0.0036
587.231	0.0029
587.512	0.0035
587.793	0.0027
588.074	0.0028
588.355	0.0033
588.636	0.0023
588.916	0.0025
589.197	0.0021
589.478	0.0037
589.758	0.0021
590.039	0.0024
590.319	0.0021
590.6	0.0023
590.88	0.0018
591.16	0.0015
591.441	0.0032
591.721	0.0016
592.001	0.0026
592.281	0.0023
592.561	0.0028
592.841	0.0021
593.12	0.0021
593.4	0.0032
593.68	0.0032
593.959	0.0029
594.239	0.0036
594.518	0.0048
594.798	0.0039
595.077	0.003
595.356	0.003
595.636	0.003
595.915	0.0025
596.194	0.003
596.473	0.0039
596.752	0.0033
