Data from 03 0.4 mM K2Cr2O7 0.25 M BQDS 1 M H2SO4 5 min_Absorbance_0219.txt Node
Date: Wed Dec 15 11:45:13 EST 2021
User: kwabilab-user
Spectrometer: HDX00518
Trigger mode: 0
Integration Time (sec): 5.000000E-2
Scans to average: 50
Nonlinearity correction enabled: false
Boxcar width: 0
Storing dark spectrum: false
XAxis mode: Wavelengths
Number of Pixels in Spectrum: 2068
>>>>>Begin Spectral Data<<<<<
195.27	-0.2454
195.642	0.0859
196.014	-0.1095
196.386	-0.091
196.758	-0.0677
197.129	0.0059
197.501	-0.0158
197.872	0.0145
198.244	0.0144
198.615	0.02
198.986	0.0153
199.357	0.0362
199.728	0.0332
200.099	0.0197
200.47	0.0213
200.841	0.0211
201.212	0.0238
201.582	0.0319
201.953	0.0251
202.323	0.0231
202.694	0.011
203.064	0.0169
203.434	0.018
203.804	0.0038
204.174	0.0063
204.544	0.0259
204.914	0.0018
205.284	0.0216
205.653	0.0042
206.023	0.0131
206.393	0.0383
206.762	0.0052
207.131	0.0104
207.501	0.0267
207.87	0.0368
208.239	0.02
208.608	0.0195
208.977	-0.0039
209.346	0.0003
209.715	0.0412
210.083	0.0263
210.452	0.0092
210.82	0.0307
211.189	0.0101
211.557	0.0234
211.925	0.0054
212.294	0.0251
212.662	0.0218
213.03	0.0071
213.398	0.0425
213.766	0.0244
214.133	0.0222
214.501	0.0385
214.869	0.0098
215.236	0.0093
215.604	0.0482
215.971	0.0445
216.338	0.0265
216.705	0.0292
217.072	0.0459
217.439	0.0281
217.806	0.0382
218.173	0.0499
218.54	0.0528
218.907	0.0533
219.273	0.0663
219.64	0.0783
220.006	0.0819
220.373	0.0901
220.739	0.0966
221.105	0.1323
221.471	0.129
221.837	0.1543
222.203	0.1705
222.569	0.1799
222.935	0.1925
223.3	0.2162
223.666	0.2522
224.031	0.2747
224.397	0.2736
224.762	0.2945
225.127	0.334
225.493	0.3517
225.858	0.3929
226.223	0.3977
226.588	0.4024
226.952	0.4255
227.317	0.4721
227.682	0.466
228.046	0.4665
228.411	0.5094
228.775	0.5202
229.14	0.5174
229.504	0.5306
229.868	0.5404
230.232	0.5453
230.596	0.5702
230.96	0.5758
231.324	0.5703
231.688	0.577
232.052	0.5999
232.415	0.5937
232.779	0.6063
233.142	0.5987
233.505	0.5921
233.869	0.6022
234.232	0.611
234.595	0.6061
234.958	0.6026
235.321	0.6
235.684	0.6039
236.047	0.6016
236.409	0.5902
236.772	0.5927
237.134	0.5923
237.497	0.5861
237.859	0.5966
238.222	0.5844
238.584	0.5722
238.946	0.5715
239.308	0.5716
239.67	0.5665
240.032	0.5727
240.393	0.5618
240.755	0.565
241.117	0.552
241.478	0.5588
241.84	0.5512
242.201	0.5475
242.562	0.5386
242.924	0.5424
243.285	0.533
243.646	0.5282
244.007	0.5209
244.368	0.5247
244.728	0.5263
245.089	0.5186
245.45	0.5169
245.81	0.5158
246.171	0.516
246.531	0.5162
246.891	0.5094
247.252	0.5043
247.612	0.5074
247.972	0.5059
248.332	0.4982
248.692	0.5037
249.051	0.4952
249.411	0.4992
249.771	0.4972
250.13	0.4941
250.49	0.4908
250.849	0.4873
251.208	0.4886
251.568	0.4922
251.927	0.4875
252.286	0.4874
252.645	0.4892
253.004	0.4825
253.363	0.4795
253.721	0.481
254.08	0.4763
254.439	0.4791
254.797	0.4749
255.155	0.4719
255.514	0.4749
255.872	0.4778
256.23	0.4757
256.588	0.4794
256.946	0.4741
257.304	0.4695
257.662	0.4728
258.02	0.4718
258.377	0.47
258.735	0.4665
259.093	0.4623
259.45	0.4654
259.807	0.4654
260.165	0.4651
260.522	0.4623
260.879	0.46
261.236	0.4577
261.593	0.4565
261.95	0.4563
262.306	0.4552
262.663	0.4538
263.02	0.4506
263.376	0.4526
263.733	0.447
264.089	0.4478
264.445	0.4424
264.802	0.4467
265.158	0.4423
265.514	0.445
265.87	0.4357
266.226	0.439
266.581	0.4376
266.937	0.4352
267.293	0.4341
267.648	0.4278
268.004	0.4307
268.359	0.4249
268.714	0.422
269.07	0.4214
269.425	0.4219
269.78	0.4198
270.135	0.4173
270.49	0.4135
270.844	0.4128
271.199	0.4109
271.554	0.406
271.908	0.4049
272.263	0.4061
272.617	0.4032
272.972	0.3999
273.326	0.3954
273.68	0.3916
274.034	0.3881
274.388	0.3902
274.742	0.3862
275.096	0.3841
275.45	0.3835
275.803	0.3785
276.157	0.3719
276.51	0.3737
276.864	0.3703
277.217	0.3658
277.571	0.3695
277.924	0.3611
278.277	0.3592
278.63	0.3559
278.983	0.3524
279.336	0.3459
279.688	0.3451
280.041	0.34
280.394	0.3381
280.746	0.3363
281.099	0.3332
281.451	0.3282
281.803	0.3266
282.156	0.3227
282.508	0.318
282.86	0.3185
283.212	0.3152
283.564	0.3095
283.916	0.3051
284.267	0.303
284.619	0.3016
284.971	0.2957
285.322	0.2952
285.673	0.29
286.025	0.2855
286.376	0.2833
286.727	0.2794
287.078	0.2776
287.429	0.2758
287.78	0.2727
288.131	0.2674
288.482	0.2641
288.833	0.2615
289.183	0.2574
289.534	0.2539
289.884	0.2517
290.235	0.2494
290.585	0.2471
290.935	0.2427
291.285	0.2409
291.635	0.2367
291.985	0.2338
292.335	0.2303
292.685	0.228
293.035	0.2241
293.384	0.2209
293.734	0.2174
294.083	0.2151
294.433	0.2129
294.782	0.2103
295.131	0.2048
295.48	0.2042
295.829	0.2017
296.179	0.1987
296.527	0.1946
296.876	0.1924
297.225	0.1885
297.574	0.1864
297.922	0.1841
298.271	0.1806
298.619	0.1772
298.968	0.1763
299.316	0.1736
299.664	0.1712
300.012	0.1699
300.36	0.166
300.708	0.164
301.056	0.1618
301.404	0.1591
301.752	0.1567
302.099	0.1547
302.447	0.1528
302.794	0.1503
303.142	0.1483
303.489	0.1462
303.836	0.1449
304.183	0.1429
304.531	0.1412
304.878	0.1386
305.224	0.1379
305.571	0.1363
305.918	0.1346
306.265	0.1317
306.611	0.1314
306.958	0.1311
307.304	0.1293
307.651	0.1286
307.997	0.1268
308.343	0.1259
308.689	0.1251
309.035	0.1244
309.381	0.1227
309.727	0.1222
310.073	0.1211
310.419	0.1212
310.764	0.1202
311.11	0.1184
311.455	0.1181
311.801	0.1173
312.146	0.1168
312.491	0.1165
312.837	0.1168
313.182	0.1151
313.527	0.1148
313.872	0.1145
314.216	0.1156
314.561	0.1144
314.906	0.1145
315.251	0.1156
315.595	0.1144
315.94	0.1147
316.284	0.1146
316.628	0.1139
316.972	0.1148
317.317	0.1148
317.661	0.1154
318.005	0.1155
318.348	0.115
318.692	0.1157
319.036	0.1161
319.38	0.1165
319.723	0.1161
320.067	0.1177
320.41	0.1182
320.754	0.1185
321.097	0.1183
321.44	0.1189
321.783	0.1199
322.126	0.1205
322.469	0.1213
322.812	0.1222
323.155	0.1223
323.498	0.1236
323.84	0.123
324.183	0.1243
324.525	0.1258
324.868	0.1272
325.21	0.1271
325.552	0.1277
325.894	0.1292
326.236	0.1297
326.578	0.1303
326.92	0.1316
327.262	0.1319
327.604	0.1334
327.946	0.1342
328.287	0.1351
328.629	0.136
328.97	0.1368
329.312	0.1382
329.653	0.1387
329.994	0.1406
330.335	0.1414
330.676	0.143
331.017	0.1427
331.358	0.1443
331.699	0.1454
332.04	0.1466
332.38	0.1471
332.721	0.1487
333.061	0.1482
333.402	0.1512
333.742	0.1517
334.083	0.1523
334.423	0.1528
334.763	0.1548
335.103	0.1545
335.443	0.1554
335.783	0.1561
336.123	0.1574
336.462	0.1584
336.802	0.1595
337.141	0.1597
337.481	0.1611
337.82	0.1619
338.16	0.1622
338.499	0.1638
338.838	0.1643
339.177	0.1656
339.516	0.1661
339.855	0.1658
340.194	0.1675
340.533	0.1671
340.872	0.1675
341.21	0.1689
341.549	0.1691
341.887	0.1702
342.226	0.1696
342.564	0.1714
342.902	0.1718
343.24	0.1717
343.578	0.173
343.916	0.172
344.254	0.1726
344.592	0.1724
344.93	0.1733
345.268	0.1729
345.605	0.1743
345.943	0.1736
346.28	0.1739
346.618	0.1736
346.955	0.1736
347.292	0.1744
347.629	0.1739
347.966	0.1743
348.303	0.1746
348.64	0.1749
348.977	0.1744
349.314	0.1746
349.65	0.1745
349.987	0.1753
350.324	0.1739
350.66	0.1745
350.996	0.1743
351.333	0.1735
351.669	0.1735
352.005	0.1731
352.341	0.172
352.677	0.1715
353.013	0.1707
353.349	0.1704
353.685	0.17
354.02	0.169
354.356	0.1679
354.691	0.1678
355.027	0.1669
355.362	0.1668
355.697	0.1655
356.033	0.1658
356.368	0.1646
356.703	0.164
357.038	0.1641
357.373	0.1627
357.707	0.1616
358.042	0.1614
358.377	0.1604
358.711	0.1604
359.046	0.1585
359.38	0.1588
359.715	0.158
360.049	0.1567
360.383	0.1558
360.717	0.1552
361.051	0.1536
361.385	0.1538
361.719	0.1515
362.053	0.1522
362.387	0.1489
362.72	0.1486
363.054	0.1477
363.387	0.1463
363.721	0.1459
364.054	0.1446
364.387	0.1432
364.721	0.141
365.054	0.1404
365.387	0.1388
365.72	0.1381
366.053	0.1374
366.385	0.1354
366.718	0.1351
367.051	0.1335
367.383	0.1331
367.716	0.1319
368.048	0.131
368.381	0.1302
368.713	0.1293
369.045	0.1287
369.377	0.1278
369.709	0.1256
370.041	0.1254
370.373	0.1253
370.705	0.1231
371.037	0.1223
371.368	0.1207
371.7	0.1198
372.031	0.1189
372.363	0.1174
372.694	0.1162
373.025	0.1149
373.356	0.1141
373.688	0.1123
374.019	0.1106
374.35	0.1092
374.68	0.1086
375.011	0.1067
375.342	0.1062
375.673	0.1046
376.003	0.1026
376.334	0.1022
376.664	0.1006
376.995	0.0996
377.325	0.0978
377.655	0.0969
377.985	0.0954
378.315	0.0947
378.645	0.0938
378.975	0.0933
379.305	0.0915
379.635	0.0916
379.964	0.0903
380.294	0.0901
380.623	0.0888
380.953	0.0872
381.282	0.0859
381.611	0.0865
381.941	0.0855
382.27	0.0839
382.599	0.0839
382.928	0.0818
383.257	0.0805
383.585	0.0803
383.914	0.0785
384.243	0.0771
384.571	0.0765
384.9	0.0756
385.228	0.0741
385.557	0.0736
385.885	0.0716
386.213	0.0711
386.541	0.0697
386.869	0.0689
387.197	0.0673
387.525	0.0667
387.853	0.0659
388.181	0.0639
388.508	0.064
388.836	0.0625
389.164	0.062
389.491	0.0607
389.818	0.0598
390.146	0.0589
390.473	0.0586
390.8	0.0585
391.127	0.0564
391.454	0.0559
391.781	0.0561
392.108	0.0549
392.435	0.0539
392.761	0.0535
393.088	0.0534
393.415	0.0522
393.741	0.052
394.067	0.0519
394.394	0.0515
394.72	0.0499
395.046	0.0485
395.372	0.0484
395.698	0.0486
396.024	0.0474
396.35	0.0466
396.676	0.0464
397.001	0.0456
397.327	0.0445
397.653	0.044
397.978	0.0443
398.303	0.0426
398.629	0.0421
398.954	0.0416
399.279	0.0417
399.604	0.0408
399.929	0.0408
400.254	0.0398
400.579	0.0392
400.904	0.0387
401.229	0.0386
401.553	0.0384
401.878	0.0384
402.202	0.0378
402.527	0.0369
402.851	0.0374
403.175	0.0361
403.5	0.0363
403.824	0.0353
404.148	0.0357
404.472	0.0351
404.796	0.0358
405.119	0.0349
405.443	0.0347
405.767	0.0342
406.09	0.0342
406.414	0.0339
406.737	0.0338
407.061	0.0343
407.384	0.0338
407.707	0.0332
408.03	0.0332
408.353	0.0329
408.676	0.0325
408.999	0.0332
409.322	0.0325
409.645	0.0326
409.968	0.0331
410.29	0.0328
410.613	0.033
410.935	0.0314
411.258	0.0326
411.58	0.0313
411.902	0.0312
412.224	0.0322
412.546	0.0316
412.868	0.0321
413.19	0.0317
413.512	0.0316
413.834	0.0317
414.156	0.0321
414.477	0.0314
414.799	0.0318
415.121	0.0308
415.442	0.0315
415.763	0.0309
416.085	0.0318
416.406	0.0311
416.727	0.0315
417.048	0.0316
417.369	0.0318
417.69	0.0313
418.011	0.0313
418.331	0.0317
418.652	0.0317
418.973	0.0312
419.293	0.0313
419.614	0.0308
419.934	0.0318
420.254	0.0314
420.574	0.0304
420.895	0.0307
421.215	0.0307
421.535	0.0309
421.855	0.0299
422.174	0.0296
422.494	0.0306
422.814	0.0301
423.134	0.031
423.453	0.0318
423.773	0.0314
424.092	0.0314
424.411	0.0308
424.731	0.0307
425.05	0.0306
425.369	0.0311
425.688	0.0315
426.007	0.0312
426.326	0.0316
426.644	0.0306
426.963	0.0305
427.282	0.0313
427.6	0.0306
427.919	0.0311
428.237	0.0313
428.556	0.0309
428.874	0.031
429.192	0.0311
429.51	0.031
429.828	0.0307
430.146	0.0312
430.464	0.0304
430.782	0.031
431.1	0.0303
431.418	0.031
431.735	0.0302
432.053	0.0313
432.37	0.0309
432.688	0.0304
433.005	0.0303
433.322	0.0311
433.639	0.0313
433.957	0.0309
434.274	0.0307
434.591	0.0307
434.907	0.0304
435.224	0.0314
435.541	0.0308
435.858	0.0318
436.174	0.0315
436.491	0.0307
436.807	0.03
437.124	0.0307
437.44	0.0303
437.756	0.031
438.072	0.0301
438.388	0.0305
438.704	0.0304
439.02	0.0301
439.336	0.0298
439.652	0.0306
439.968	0.0306
440.283	0.0301
440.599	0.0307
440.914	0.0304
441.23	0.0298
441.545	0.0299
441.86	0.03
442.175	0.0307
442.491	0.0295
442.806	0.0298
443.121	0.029
443.435	0.0294
443.75	0.0292
444.065	0.0294
444.38	0.0295
444.694	0.0288
445.009	0.0295
445.323	0.0292
445.638	0.0293
445.952	0.0293
446.266	0.0286
446.58	0.0281
446.894	0.0286
447.208	0.0284
447.522	0.0282
447.836	0.0284
448.15	0.0284
448.464	0.0279
448.777	0.0282
449.091	0.0279
449.404	0.0275
449.718	0.0279
450.031	0.0277
450.345	0.0274
450.658	0.0272
450.971	0.0279
451.284	0.0272
451.597	0.0282
451.91	0.0277
452.223	0.0275
452.535	0.0273
452.848	0.0271
453.161	0.0272
453.473	0.0273
453.786	0.0265
454.098	0.0271
454.411	0.0265
454.723	0.0272
455.035	0.0259
455.347	0.0256
455.659	0.0269
455.971	0.027
456.283	0.0265
456.595	0.0268
456.907	0.0268
457.218	0.027
457.53	0.0259
457.841	0.0257
458.153	0.0253
458.464	0.0254
458.776	0.0259
459.087	0.0255
459.398	0.0251
459.709	0.0239
460.02	0.025
460.331	0.0253
460.642	0.025
460.953	0.0247
461.263	0.0251
461.574	0.0236
461.885	0.0251
462.195	0.0241
462.506	0.0241
462.816	0.0247
463.126	0.0234
463.437	0.0238
463.747	0.0227
464.057	0.0224
464.367	0.0223
464.677	0.023
464.987	0.0222
465.296	0.0219
465.606	0.0221
465.916	0.0215
466.225	0.0224
466.535	0.0216
466.844	0.0227
467.154	0.0224
467.463	0.0219
467.772	0.022
468.081	0.0216
468.39	0.0217
468.699	0.0224
469.008	0.0214
469.317	0.0216
469.626	0.0216
469.935	0.0208
470.243	0.0219
470.552	0.0201
470.86	0.0203
471.169	0.02
471.477	0.0201
471.785	0.0206
472.093	0.0199
472.402	0.0195
472.71	0.0198
473.018	0.019
473.326	0.0197
473.633	0.0197
473.941	0.0187
474.249	0.0198
474.556	0.0192
474.864	0.0188
475.171	0.0185
475.479	0.0188
475.786	0.0185
476.094	0.0181
476.401	0.0179
476.708	0.0178
477.015	0.0176
477.322	0.0168
477.629	0.0164
477.936	0.0176
478.242	0.0174
478.549	0.0175
478.856	0.017
479.162	0.0167
479.469	0.0164
479.775	0.0161
480.081	0.0155
480.388	0.0157
480.694	0.0155
481	0.0158
481.306	0.0161
481.612	0.0154
481.918	0.0162
482.224	0.0162
482.53	0.016
482.835	0.0161
483.141	0.0156
483.446	0.0153
483.752	0.0142
484.057	0.0136
484.363	0.0138
484.668	0.0149
484.973	0.0139
485.278	0.0131
485.583	0.0126
485.888	0.0135
486.193	0.0121
486.498	0.0131
486.803	0.0133
487.107	0.0123
487.412	0.0113
487.717	0.0125
488.021	0.0127
488.325	0.0131
488.63	0.0125
488.934	0.0126
489.238	0.0113
489.542	0.0114
489.846	0.0117
490.15	0.012
490.454	0.0125
490.758	0.0118
491.062	0.0113
491.366	0.0111
491.669	0.0115
491.973	0.0114
492.276	0.0106
492.58	0.0104
492.883	0.0114
493.186	0.0102
493.489	0.0108
493.792	0.0093
494.096	0.0095
494.399	0.0102
494.701	0.0097
495.004	0.0092
495.307	0.0103
495.61	0.01
495.912	0.0104
496.215	0.0094
496.517	0.0102
496.82	0.0102
497.122	0.0092
497.424	0.0092
497.727	0.0084
498.029	0.0087
498.331	0.0088
498.633	0.0087
498.935	0.0083
499.237	0.0087
499.538	0.0083
499.84	0.0081
500.142	0.008
500.443	0.0082
500.745	0.0081
501.046	0.0077
501.348	0.0072
501.649	0.0067
501.95	0.0072
502.251	0.0078
502.552	0.0066
502.853	0.0076
503.154	0.008
503.455	0.0068
503.756	0.0069
504.057	0.0068
504.357	0.0071
504.658	0.0066
504.958	0.0062
505.259	0.0069
505.559	0.0066
505.859	0.0059
506.16	0.0057
506.46	0.0055
506.76	0.006
507.06	0.0052
507.36	0.0055
507.66	0.0058
507.96	0.0073
508.259	0.0057
508.559	0.0061
508.859	0.006
509.158	0.0058
509.457	0.0054
509.757	0.0045
510.056	0.0058
510.355	0.0058
510.655	0.0051
510.954	0.0046
511.253	0.0046
511.552	0.0052
511.851	0.0052
512.149	0.0052
512.448	0.0044
512.747	0.0046
513.045	0.005
513.344	0.0046
513.642	0.0042
513.941	0.0053
514.239	0.0044
514.537	0.0047
514.836	0.0043
515.134	0.0043
515.432	0.0048
515.73	0.0036
516.028	0.004
516.326	0.0037
516.623	0.0034
516.921	0.004
517.219	0.0049
517.516	0.0038
517.814	0.0041
518.111	0.0036
518.409	0.0049
518.706	0.0035
519.003	0.0027
519.3	0.0038
519.597	0.0039
519.894	0.0032
520.191	0.0045
520.488	0.0053
520.785	0.0036
521.082	0.004
521.378	0.0042
521.675	0.0036
521.971	0.0033
522.268	0.005
522.564	0.0041
522.861	0.004
523.157	0.0034
523.453	0.0041
523.749	0.0038
524.045	0.0032
524.341	0.0027
524.637	0.0037
524.933	0.0037
525.229	0.0037
525.524	0.0038
525.82	0.0048
526.115	0.0042
526.411	0.0036
526.706	0.0032
527.002	0.003
527.297	0.0021
527.592	0.0033
527.887	0.0019
528.182	0.0022
528.477	0.0038
528.772	0.0019
529.067	0.0034
529.362	0.0032
529.657	0.0036
529.951	0.003
530.246	0.0032
530.54	0.0028
530.835	0.0032
531.129	0.004
531.423	0.0023
531.718	0.0037
532.012	0.0029
532.306	0.0038
532.6	0.0027
532.894	0.0032
533.188	0.0026
533.482	0.003
533.775	0.0023
534.069	0.0028
534.363	0.0023
534.656	0.0026
534.95	0.0032
535.243	0.0025
535.536	0.0019
535.83	0.003
536.123	0.0012
536.416	0.0028
536.709	0.0041
537.002	0.0033
537.295	0.0033
537.588	0.0039
537.881	0.002
538.173	0.0029
538.466	0.0034
538.759	0.0028
539.051	0.0032
539.344	0.0028
539.636	0.0035
539.928	0.0042
540.22	0.0022
540.513	0.0041
540.805	0.0037
541.097	0.0034
541.389	0.0028
541.681	0.004
541.972	0.0028
542.264	0.0039
542.556	0.0043
542.847	0.0035
543.139	0.0037
543.431	0.0028
543.722	0.0023
544.013	0.0036
544.305	0.0032
544.596	0.0035
544.887	0.0041
545.178	0.0035
545.469	0.004
545.76	0.0036
546.051	0.0043
546.342	0.0033
546.632	0.0041
546.923	0.0036
547.214	0.0023
547.504	0.0036
547.795	0.0037
548.085	0.0034
548.375	0.0033
548.666	0.004
548.956	0.0034
549.246	0.0045
549.536	0.004
549.826	0.0045
550.116	0.0047
550.406	0.0042
550.695	0.0037
550.985	0.0033
551.275	0.0045
551.564	0.0052
551.854	0.0051
552.143	0.0055
552.433	0.0038
552.722	0.0042
553.011	0.0047
553.3	0.0038
553.589	0.0047
553.879	0.0039
554.167	0.0035
554.456	0.0034
554.745	0.0041
555.034	0.0047
555.323	0.0031
555.611	0.0037
555.9	0.0036
556.188	0.0038
556.477	0.0031
556.765	0.0044
557.053	0.0042
557.342	0.0035
557.63	0.0042
557.918	0.0049
558.206	0.0051
558.494	0.0047
558.782	0.0043
559.069	0.0041
559.357	0.0037
559.645	0.0041
559.932	0.0032
560.22	0.0042
560.507	0.0021
560.795	0.0023
561.082	0.002
561.37	0.0037
561.657	0.0025
561.944	0.0026
562.231	0.0024
562.518	0.0039
562.805	0.0043
563.092	0.0025
563.379	0.004
563.665	0.0026
563.952	0.004
564.239	0.0045
564.525	0.0036
564.811	0.0041
565.098	0.003
565.384	0.0035
565.67	0.0038
565.957	0.0036
566.243	0.0045
566.529	0.0041
566.815	0.005
567.101	0.004
567.387	0.0033
567.672	0.0033
567.958	0.0024
568.244	0.0022
568.529	0.0028
568.815	0.0029
569.1	0.0028
569.386	0.0037
569.671	0.0028
569.956	0.0027
570.242	0.0026
570.527	0.0021
570.812	0.0027
571.097	0.002
571.382	0.0021
571.666	0.0022
571.951	0.0024
572.236	0.0025
572.521	0.0034
572.805	0.0036
573.09	0.0028
573.374	0.001
573.659	0.0015
573.943	0.0022
574.227	0.0029
574.511	0.0021
574.795	0.003
575.079	0.0023
575.363	0.0021
575.647	0.0032
575.931	0.0035
576.215	0.0034
576.499	0.0014
576.782	0.0017
577.066	0.003
577.349	0.0026
577.633	0.0031
577.916	0.0022
578.2	0.0022
578.483	0.0027
578.766	0.0038
579.049	0.0032
579.332	0.0036
579.615	0.002
579.898	0.0023
580.181	0.0029
580.464	0.0029
580.746	0.003
581.029	0.0029
581.312	0.0016
581.594	0.0008
581.877	0.0018
582.159	0.0034
582.441	0.002
582.724	0.0025
583.006	0.0035
583.288	0.0031
583.57	0.0028
583.852	0.0042
584.134	0.0039
584.416	0.0024
584.697	0.0028
584.979	0.0016
585.261	0.0019
585.542	0.0026
585.824	0.0029
586.105	0.0031
586.387	0.0037
586.668	0.0028
586.949	0.0035
587.231	0.0031
587.512	0.0033
587.793	0.0028
588.074	0.0034
588.355	0.0034
588.636	0.003
588.916	0.0031
589.197	0.0033
589.478	0.003
589.758	0.0026
590.039	0.0025
590.319	0.0023
590.6	0.002
590.88	0.0022
591.16	0.0025
591.441	0.0029
591.721	0.0026
592.001	0.002
592.281	0.0027
592.561	0.0029
592.841	0.0026
593.12	0.002
593.4	0.0031
593.68	0.0028
593.959	0.0026
594.239	0.0036
594.518	0.0044
594.798	0.0032
595.077	0.0022
595.356	0.0031
595.636	0.0031
595.915	0.0027
596.194	0.0038
596.473	0.0037
