Data from 03 0.4 mM K2Cr2O7 0.25 M BQDS 1 M H2SO4 5 min_Absorbance_0162.txt Node
Date: Wed Dec 15 07:00:12 EST 2021
User: kwabilab-user
Spectrometer: HDX00518
Trigger mode: 0
Integration Time (sec): 5.000000E-2
Scans to average: 50
Nonlinearity correction enabled: false
Boxcar width: 0
Storing dark spectrum: false
XAxis mode: Wavelengths
Number of Pixels in Spectrum: 2068
>>>>>Begin Spectral Data<<<<<
195.27	-0.1388
195.642	0.0596
196.014	-0.1988
196.386	-0.0857
196.758	-0.0796
197.129	-0.0257
197.501	-0.0472
197.872	0.0062
198.244	-0.0157
198.615	0.0279
198.986	0.0044
199.357	0.0164
199.728	0.0264
200.099	-0.0079
200.47	0.0121
200.841	0.0179
201.212	-0.0038
201.582	0.0257
201.953	0.0262
202.323	0.0014
202.694	0.0135
203.064	-0.0015
203.434	-0.0024
203.804	0.0177
204.174	0.0063
204.544	0.0212
204.914	-0.0135
205.284	-0.0012
205.653	-0.0096
206.023	0.0049
206.393	0.0024
206.762	-0.0054
207.131	0.0133
207.501	0.0156
207.87	0.0162
208.239	0.0126
208.608	0.0044
208.977	-0.0066
209.346	-0.0044
209.715	-0.0005
210.083	0.0085
210.452	0.0083
210.82	0.0096
211.189	-0.0162
211.557	0.0067
211.925	0.0225
212.294	0.0014
212.662	0.0182
213.03	0.0154
213.398	-0.0008
213.766	-0.0029
214.133	0.0154
214.501	0.0243
214.869	0.0053
215.236	-0.0014
215.604	0.0202
215.971	0.0265
216.338	0.0103
216.705	0.0223
217.072	0.0175
217.439	0.0244
217.806	0.0105
218.173	0.0456
218.54	0.0289
218.907	0.0482
219.273	0.0448
219.64	0.0645
220.006	0.058
220.373	0.0596
220.739	0.092
221.105	0.1097
221.471	0.1129
221.837	0.1529
222.203	0.1654
222.569	0.1682
222.935	0.1708
223.3	0.2188
223.666	0.2301
224.031	0.2612
224.397	0.2784
224.762	0.3108
225.127	0.3247
225.493	0.348
225.858	0.3804
226.223	0.3911
226.588	0.4217
226.952	0.4114
227.317	0.4499
227.682	0.4678
228.046	0.4662
228.411	0.4976
228.775	0.5078
229.14	0.5294
229.504	0.5398
229.868	0.5329
230.232	0.5456
230.596	0.5638
230.96	0.5761
231.324	0.5563
231.688	0.5712
232.052	0.5885
232.415	0.5879
232.779	0.5867
233.142	0.6077
233.505	0.608
233.869	0.5974
234.232	0.604
234.595	0.5977
234.958	0.6089
235.321	0.5975
235.684	0.5985
236.047	0.5998
236.409	0.5937
236.772	0.6008
237.134	0.5958
237.497	0.5859
237.859	0.5955
238.222	0.5901
238.584	0.5949
238.946	0.5775
239.308	0.5725
239.67	0.5686
240.032	0.5678
240.393	0.5704
240.755	0.5612
241.117	0.563
241.478	0.5681
241.84	0.5571
242.201	0.5515
242.562	0.5482
242.924	0.5479
243.285	0.5353
243.646	0.5336
244.007	0.5398
244.368	0.5313
244.728	0.5414
245.089	0.5317
245.45	0.5261
245.81	0.5227
246.171	0.5227
246.531	0.5231
246.891	0.5282
247.252	0.517
247.612	0.5165
247.972	0.5147
248.332	0.5083
248.692	0.5165
249.051	0.5114
249.411	0.5138
249.771	0.5082
250.13	0.5068
250.49	0.5018
250.849	0.5016
251.208	0.5016
251.568	0.5065
251.927	0.503
252.286	0.5086
252.645	0.5009
253.004	0.5029
253.363	0.4974
253.721	0.5014
254.08	0.5001
254.439	0.4954
254.797	0.4912
255.155	0.4966
255.514	0.4976
255.872	0.4944
256.23	0.4947
256.588	0.4945
256.946	0.4964
257.304	0.4931
257.662	0.4978
258.02	0.4931
258.377	0.4867
258.735	0.4893
259.093	0.4866
259.45	0.4869
259.807	0.4867
260.165	0.4865
260.522	0.4842
260.879	0.481
261.236	0.4817
261.593	0.4799
261.95	0.4752
262.306	0.479
262.663	0.4749
263.02	0.4785
263.376	0.4716
263.733	0.4675
264.089	0.4708
264.445	0.469
264.802	0.4639
265.158	0.4621
265.514	0.4617
265.87	0.462
266.226	0.46
266.581	0.4584
266.937	0.4593
267.293	0.452
267.648	0.456
268.004	0.4475
268.359	0.4515
268.714	0.4474
269.07	0.4425
269.425	0.4377
269.78	0.4371
270.135	0.4359
270.49	0.432
270.844	0.4342
271.199	0.4277
271.554	0.4238
271.908	0.4224
272.263	0.4254
272.617	0.4168
272.972	0.4167
273.326	0.4159
273.68	0.41
274.034	0.411
274.388	0.4076
274.742	0.4038
275.096	0.3984
275.45	0.3989
275.803	0.3945
276.157	0.3919
276.51	0.386
276.864	0.3847
277.217	0.3859
277.571	0.382
277.924	0.3756
278.277	0.3748
278.63	0.3711
278.983	0.3681
279.336	0.3627
279.688	0.3595
280.041	0.3573
280.394	0.3526
280.746	0.3493
281.099	0.3467
281.451	0.3447
281.803	0.3402
282.156	0.3357
282.508	0.3303
282.86	0.3274
283.212	0.3282
283.564	0.3218
283.916	0.3162
284.267	0.3148
284.619	0.3132
284.971	0.3094
285.322	0.3054
285.673	0.3042
286.025	0.2992
286.376	0.2975
286.727	0.2909
287.078	0.2878
287.429	0.2869
287.78	0.2829
288.131	0.2792
288.482	0.2729
288.833	0.2726
289.183	0.2695
289.534	0.2673
289.884	0.2636
290.235	0.2579
290.585	0.2568
290.935	0.2537
291.285	0.2495
291.635	0.2459
291.985	0.2434
292.335	0.2413
292.685	0.2381
293.035	0.2331
293.384	0.2301
293.734	0.2287
294.083	0.2241
294.433	0.2216
294.782	0.2203
295.131	0.2159
295.48	0.214
295.829	0.2104
296.179	0.2087
296.527	0.2034
296.876	0.2019
297.225	0.1972
297.574	0.1963
297.922	0.1926
298.271	0.189
298.619	0.187
298.968	0.1848
299.316	0.1814
299.664	0.1798
300.012	0.1769
300.36	0.1748
300.708	0.1721
301.056	0.1699
301.404	0.1686
301.752	0.1653
302.099	0.1629
302.447	0.1603
302.794	0.1587
303.142	0.1561
303.489	0.1544
303.836	0.152
304.183	0.1511
304.531	0.1493
304.878	0.1472
305.224	0.1452
305.571	0.1443
305.918	0.1426
306.265	0.1399
306.611	0.139
306.958	0.1386
307.304	0.137
307.651	0.1356
307.997	0.1338
308.343	0.1326
308.689	0.1325
309.035	0.1319
309.381	0.1303
309.727	0.129
310.073	0.128
310.419	0.1276
310.764	0.1276
311.11	0.1262
311.455	0.1251
311.801	0.1255
312.146	0.1243
312.491	0.1236
312.837	0.1239
313.182	0.1219
313.527	0.1224
313.872	0.1232
314.216	0.1227
314.561	0.1229
314.906	0.1216
315.251	0.1221
315.595	0.1226
315.94	0.1225
316.284	0.1221
316.628	0.122
316.972	0.1219
317.317	0.1229
317.661	0.1226
318.005	0.122
318.348	0.1234
318.692	0.1233
319.036	0.1231
319.38	0.1245
319.723	0.1241
320.067	0.1254
320.41	0.1257
320.754	0.1265
321.097	0.126
321.44	0.1268
321.783	0.1278
322.126	0.1293
322.469	0.1295
322.812	0.1305
323.155	0.1311
323.498	0.1314
323.84	0.132
324.183	0.1336
324.525	0.1343
324.868	0.1359
325.21	0.1361
325.552	0.1368
325.894	0.1373
326.236	0.1382
326.578	0.1395
326.92	0.1405
327.262	0.1409
327.604	0.1421
327.946	0.1425
328.287	0.1437
328.629	0.145
328.97	0.1461
329.312	0.1467
329.653	0.148
329.994	0.1491
330.335	0.15
330.676	0.1516
331.017	0.152
331.358	0.1539
331.699	0.1544
332.04	0.1554
332.38	0.1568
332.721	0.1578
333.061	0.1588
333.402	0.1604
333.742	0.1609
334.083	0.1618
334.423	0.1623
334.763	0.1641
335.103	0.1653
335.443	0.1656
335.783	0.1662
336.123	0.1666
336.462	0.1682
336.802	0.1693
337.141	0.17
337.481	0.1709
337.82	0.1717
338.16	0.1717
338.499	0.174
338.838	0.1747
339.177	0.1751
339.516	0.1757
339.855	0.1771
340.194	0.1773
340.533	0.178
340.872	0.1784
341.21	0.1793
341.549	0.1798
341.887	0.181
342.226	0.1809
342.564	0.1819
342.902	0.1823
343.24	0.1819
343.578	0.1827
343.916	0.1833
344.254	0.1836
344.592	0.1839
344.93	0.1837
345.268	0.1836
345.605	0.1843
345.943	0.1839
346.28	0.1845
346.618	0.1844
346.955	0.1847
347.292	0.1854
347.629	0.1851
347.966	0.1849
348.303	0.1851
348.64	0.185
348.977	0.1853
349.314	0.1858
349.65	0.1847
349.987	0.1856
350.324	0.1845
350.66	0.1852
350.996	0.1848
351.333	0.1846
351.669	0.1837
352.005	0.1844
352.341	0.1836
352.677	0.1825
353.013	0.1809
353.349	0.1811
353.685	0.1804
354.02	0.1794
354.356	0.1789
354.691	0.1778
355.027	0.1774
355.362	0.1765
355.697	0.1755
356.033	0.1752
356.368	0.1742
356.703	0.1733
357.038	0.1732
357.373	0.172
357.707	0.1723
358.042	0.1706
358.377	0.17
358.711	0.1706
359.046	0.1689
359.38	0.1683
359.715	0.1673
360.049	0.1661
360.383	0.1656
360.717	0.1641
361.051	0.1635
361.385	0.163
361.719	0.1611
362.053	0.161
362.387	0.1586
362.72	0.1582
363.054	0.1561
363.387	0.1551
363.721	0.1542
364.054	0.1531
364.387	0.1512
364.721	0.1503
365.054	0.1488
365.387	0.1468
365.72	0.1469
366.053	0.1458
366.385	0.1435
366.718	0.1429
367.051	0.1418
367.383	0.141
367.716	0.1402
368.048	0.1389
368.381	0.1378
368.713	0.1375
369.045	0.1363
369.377	0.1353
369.709	0.1342
370.041	0.1332
370.373	0.1316
370.705	0.1318
371.037	0.1292
371.368	0.1287
371.7	0.1278
372.031	0.1264
372.363	0.125
372.694	0.1237
373.025	0.1215
373.356	0.121
373.688	0.119
374.019	0.1182
374.35	0.116
374.68	0.1148
375.011	0.1132
375.342	0.1121
375.673	0.1111
376.003	0.1088
376.334	0.1082
376.664	0.1071
376.995	0.1054
377.325	0.1046
377.655	0.1031
377.985	0.102
378.315	0.101
378.645	0.1
378.975	0.0989
379.305	0.0971
379.635	0.0973
379.964	0.0962
380.294	0.0952
380.623	0.0941
380.953	0.0933
381.282	0.0933
381.611	0.0924
381.941	0.0911
382.27	0.0893
382.599	0.0888
382.928	0.0875
383.257	0.0866
383.585	0.0862
383.914	0.0845
384.243	0.0829
384.571	0.0819
384.9	0.0806
385.228	0.0788
385.557	0.0789
385.885	0.0768
386.213	0.0764
386.541	0.0744
386.869	0.0738
387.197	0.0722
387.525	0.071
387.853	0.0702
388.181	0.069
388.508	0.0682
388.836	0.067
389.164	0.0663
389.491	0.0654
389.818	0.0636
390.146	0.0635
390.473	0.0632
390.8	0.0621
391.127	0.0607
391.454	0.0599
391.781	0.0597
392.108	0.0584
392.435	0.0576
392.761	0.057
393.088	0.0564
393.415	0.0561
393.741	0.0556
394.067	0.0561
394.394	0.0547
394.72	0.0539
395.046	0.0526
395.372	0.0523
395.698	0.0516
396.024	0.0509
396.35	0.0506
396.676	0.0498
397.001	0.0488
397.327	0.0479
397.653	0.0471
397.978	0.0475
398.303	0.0459
398.629	0.0455
398.954	0.045
399.279	0.0449
399.604	0.0443
399.929	0.0443
400.254	0.0429
400.579	0.0422
400.904	0.0414
401.229	0.0421
401.553	0.0413
401.878	0.0412
402.202	0.0409
402.527	0.0398
402.851	0.0398
403.175	0.0386
403.5	0.0394
403.824	0.0381
404.148	0.0381
404.472	0.038
404.796	0.0379
405.119	0.0373
405.443	0.0368
405.767	0.0366
406.09	0.0374
406.414	0.0365
406.737	0.0371
407.061	0.037
407.384	0.0358
407.707	0.036
408.03	0.0356
408.353	0.0353
408.676	0.0353
408.999	0.035
409.322	0.0346
409.645	0.0346
409.968	0.0352
410.29	0.0345
410.613	0.0355
410.935	0.0341
411.258	0.0341
411.58	0.0338
411.902	0.0341
412.224	0.0338
412.546	0.0341
412.868	0.035
413.19	0.0339
413.512	0.0341
413.834	0.034
414.156	0.0346
414.477	0.0336
414.799	0.0345
415.121	0.0335
415.442	0.0333
415.763	0.0332
416.085	0.034
416.406	0.0339
416.727	0.0346
417.048	0.0337
417.369	0.0339
417.69	0.0331
418.011	0.0335
418.331	0.0338
418.652	0.0338
418.973	0.0335
419.293	0.0339
419.614	0.0331
419.934	0.034
420.254	0.0333
420.574	0.0321
420.895	0.0324
421.215	0.0335
421.535	0.0333
421.855	0.0327
422.174	0.0322
422.494	0.0326
422.814	0.0326
423.134	0.0335
423.453	0.0332
423.773	0.0339
424.092	0.0334
424.411	0.033
424.731	0.0335
425.05	0.0337
425.369	0.0332
425.688	0.0331
426.007	0.0331
426.326	0.0338
426.644	0.033
426.963	0.0334
427.282	0.0333
427.6	0.0331
427.919	0.0333
428.237	0.033
428.556	0.0336
428.874	0.0334
429.192	0.0332
429.51	0.0329
429.828	0.033
430.146	0.0326
430.464	0.0327
430.782	0.0334
431.1	0.0324
431.418	0.0331
431.735	0.0323
432.053	0.0332
432.37	0.0325
432.688	0.0321
433.005	0.0321
433.322	0.0338
433.639	0.0328
433.957	0.0334
434.274	0.0333
434.591	0.0334
434.907	0.033
435.224	0.033
435.541	0.0333
435.858	0.0339
436.174	0.0338
436.491	0.0328
436.807	0.0323
437.124	0.0328
437.44	0.0326
437.756	0.0331
438.072	0.032
438.388	0.0327
438.704	0.0321
439.02	0.0324
439.336	0.0326
439.652	0.0328
439.968	0.0325
440.283	0.0322
440.599	0.0329
440.914	0.033
441.23	0.0322
441.545	0.0329
441.86	0.0328
442.175	0.0328
442.491	0.0323
442.806	0.0321
443.121	0.0316
443.435	0.032
443.75	0.032
444.065	0.0324
444.38	0.0318
444.694	0.0314
445.009	0.0317
445.323	0.032
445.638	0.0321
445.952	0.0311
446.266	0.0311
446.58	0.0299
446.894	0.031
447.208	0.0309
447.522	0.0306
447.836	0.0315
448.15	0.0304
448.464	0.0306
448.777	0.0308
449.091	0.0308
449.404	0.0301
449.718	0.0307
450.031	0.0288
450.345	0.0301
450.658	0.029
450.971	0.0296
451.284	0.0297
451.597	0.0301
451.91	0.0294
452.223	0.0296
452.535	0.0295
452.848	0.0294
453.161	0.0294
453.473	0.0294
453.786	0.0292
454.098	0.0289
454.411	0.029
454.723	0.0293
455.035	0.0281
455.347	0.028
455.659	0.0286
455.971	0.0288
456.283	0.0294
456.595	0.0286
456.907	0.0289
457.218	0.0294
457.53	0.028
457.841	0.0279
458.153	0.028
458.464	0.0275
458.776	0.0277
459.087	0.0273
459.398	0.0271
459.709	0.0263
460.02	0.0281
460.331	0.0271
460.642	0.027
460.953	0.0265
461.263	0.0265
461.574	0.0257
461.885	0.0274
462.195	0.026
462.506	0.0265
462.816	0.0273
463.126	0.026
463.437	0.0254
463.747	0.0258
464.057	0.0245
464.367	0.0248
464.677	0.0249
464.987	0.0247
465.296	0.0243
465.606	0.0245
465.916	0.0232
466.225	0.0239
466.535	0.0237
466.844	0.0242
467.154	0.0248
467.463	0.0242
467.772	0.0232
468.081	0.0236
468.39	0.0239
468.699	0.0232
469.008	0.0235
469.317	0.0234
469.626	0.0237
469.935	0.0224
470.243	0.0236
470.552	0.0223
470.86	0.0227
471.169	0.0222
471.477	0.022
471.785	0.0214
472.093	0.021
472.402	0.0215
472.71	0.0215
473.018	0.0208
473.326	0.0219
473.633	0.0208
473.941	0.0213
474.249	0.0203
474.556	0.0202
474.864	0.0203
475.171	0.0202
475.479	0.0202
475.786	0.0208
476.094	0.0199
476.401	0.0198
476.708	0.0195
477.015	0.0188
477.322	0.0184
477.629	0.0183
477.936	0.0192
478.242	0.0192
478.549	0.0185
478.856	0.0183
479.162	0.0182
479.469	0.0179
479.775	0.0177
480.081	0.0169
480.388	0.0169
480.694	0.0175
481	0.0175
481.306	0.0171
481.612	0.0169
481.918	0.0179
482.224	0.017
482.53	0.0169
482.835	0.0168
483.141	0.0165
483.446	0.0164
483.752	0.0159
484.057	0.0152
484.363	0.0156
484.668	0.0162
484.973	0.0145
485.278	0.0146
485.583	0.0143
485.888	0.0146
486.193	0.0135
486.498	0.0146
486.803	0.015
487.107	0.014
487.412	0.0126
487.717	0.0134
488.021	0.015
488.325	0.0134
488.63	0.014
488.934	0.0141
489.238	0.0133
489.542	0.0136
489.846	0.0133
490.15	0.0128
490.454	0.014
490.758	0.0128
491.062	0.0129
491.366	0.0121
491.669	0.0128
491.973	0.0126
492.276	0.0116
492.58	0.0116
492.883	0.0131
493.186	0.0112
493.489	0.0123
493.792	0.0107
494.096	0.011
494.399	0.011
494.701	0.0106
495.004	0.01
495.307	0.0107
495.61	0.0112
495.912	0.0115
496.215	0.0108
496.517	0.0107
496.82	0.0106
497.122	0.0113
497.424	0.0105
497.727	0.01
498.029	0.0102
498.331	0.0097
498.633	0.0096
498.935	0.0087
499.237	0.0098
499.538	0.0087
499.84	0.0093
500.142	0.0087
500.443	0.0089
500.745	0.0092
501.046	0.0088
501.348	0.0079
501.649	0.0078
501.95	0.0081
502.251	0.0087
502.552	0.0081
502.853	0.0084
503.154	0.0084
503.455	0.0073
503.756	0.0083
504.057	0.0074
504.357	0.0076
504.658	0.0077
504.958	0.0074
505.259	0.0074
505.559	0.0067
505.859	0.007
506.16	0.0062
506.46	0.0063
506.76	0.0072
507.06	0.006
507.36	0.0062
507.66	0.0073
507.96	0.0078
508.259	0.0062
508.559	0.0061
508.859	0.0065
509.158	0.0065
509.457	0.0054
509.757	0.006
510.056	0.0059
510.355	0.0065
510.655	0.0053
510.954	0.0058
511.253	0.0058
511.552	0.0059
511.851	0.0059
512.149	0.006
512.448	0.0048
512.747	0.0054
513.045	0.0051
513.344	0.0052
513.642	0.0055
513.941	0.0052
514.239	0.0055
514.537	0.0053
514.836	0.0051
515.134	0.005
515.432	0.0045
515.73	0.0047
516.028	0.0044
516.326	0.0043
516.623	0.0039
516.921	0.004
517.219	0.0052
517.516	0.0039
517.814	0.0039
518.111	0.0044
518.409	0.0037
518.706	0.0045
519.003	0.0044
519.3	0.0037
519.597	0.0038
519.894	0.004
520.191	0.0048
520.488	0.0047
520.785	0.0041
521.082	0.0048
521.378	0.0048
521.675	0.003
521.971	0.0034
522.268	0.0049
522.564	0.0041
522.861	0.0054
523.157	0.005
523.453	0.0038
523.749	0.0036
524.045	0.0041
524.341	0.0036
524.637	0.0033
524.933	0.0048
525.229	0.0042
525.524	0.0038
525.82	0.0036
526.115	0.0031
526.411	0.0043
526.706	0.0036
527.002	0.0042
527.297	0.0021
527.592	0.0036
527.887	0.0033
528.182	0.0022
528.477	0.0039
528.772	0.0027
529.067	0.0023
529.362	0.0039
529.657	0.0031
529.951	0.0035
530.246	0.002
530.54	0.003
530.835	0.0031
531.129	0.0028
531.423	0.002
531.718	0.0028
532.012	0.0025
532.306	0.0035
532.6	0.0021
532.894	0.0019
533.188	0.0021
533.482	0.0024
533.775	0.0028
534.069	0.0022
534.363	0.0019
534.656	0.0027
534.95	0.0022
535.243	0.0017
535.536	0.0018
535.83	0.0013
536.123	0.0024
536.416	0.0014
536.709	0.0033
537.002	0.0045
537.295	0.0023
537.588	0.0029
537.881	0.0023
538.173	0.0033
538.466	0.0035
538.759	0.003
539.051	0.0033
539.344	0.0044
539.636	0.0033
539.928	0.0043
540.22	0.0027
540.513	0.0032
540.805	0.0024
541.097	0.0038
541.389	0.0026
541.681	0.0029
541.972	0.0024
542.264	0.0041
542.556	0.0035
542.847	0.0039
543.139	0.0035
543.431	0.0031
543.722	0.0029
544.013	0.0031
544.305	0.0034
544.596	0.0031
544.887	0.0033
545.178	0.0048
545.469	0.004
545.76	0.0036
546.051	0.0043
546.342	0.0031
546.632	0.0035
546.923	0.0033
547.214	0.0022
547.504	0.003
547.795	0.0025
548.085	0.0026
548.375	0.0032
548.666	0.0042
548.956	0.003
549.246	0.0041
549.536	0.0045
549.826	0.0045
550.116	0.0038
550.406	0.0028
550.695	0.004
550.985	0.0035
551.275	0.004
551.564	0.0042
551.854	0.0049
552.143	0.0041
552.433	0.0032
552.722	0.0043
553.011	0.0036
553.3	0.0027
553.589	0.0047
553.879	0.0043
554.167	0.0027
554.456	0.0038
554.745	0.004
555.034	0.0048
555.323	0.0031
555.611	0.0036
555.9	0.0037
556.188	0.0027
556.477	0.0033
556.765	0.0042
557.053	0.0037
557.342	0.0039
557.63	0.0035
557.918	0.004
558.206	0.0038
558.494	0.0044
558.782	0.0041
559.069	0.0044
559.357	0.0044
559.645	0.0042
559.932	0.0032
560.22	0.004
560.507	0.0013
560.795	0.0023
561.082	0.0017
561.37	0.004
561.657	0.002
561.944	0.0031
562.231	0.0026
562.518	0.0036
562.805	0.0038
563.092	0.0021
563.379	0.0028
563.665	0.003
563.952	0.0046
564.239	0.0045
564.525	0.0038
564.811	0.004
565.098	0.0039
565.384	0.003
565.67	0.003
565.957	0.0036
566.243	0.0048
566.529	0.0033
566.815	0.004
567.101	0.003
567.387	0.0038
567.672	0.0024
567.958	0.0021
568.244	0.0025
568.529	0.0029
568.815	0.0023
569.1	0.0021
569.386	0.0031
569.671	0.0031
569.956	0.0027
570.242	0.0027
570.527	0.0021
570.812	0.0027
571.097	0.0018
571.382	0.0017
571.666	0.0016
571.951	0.0032
572.236	0.0018
572.521	0.0034
572.805	0.0042
573.09	0.0033
573.374	0.0014
573.659	0.0019
573.943	0.0025
574.227	0.003
574.511	0.003
574.795	0.0032
575.079	0.0031
575.363	0.0025
575.647	0.0026
575.931	0.0035
576.215	0.0036
576.499	0.0025
576.782	0.0019
577.066	0.0027
577.349	0.0032
577.633	0.0035
577.916	0.0025
578.2	0.0029
578.483	0.0034
578.766	0.0037
579.049	0.0029
579.332	0.0033
579.615	0.0025
579.898	0.0023
580.181	0.0032
580.464	0.0021
580.746	0.0026
581.029	0.0033
581.312	0.0023
581.594	0.0013
581.877	0.002
582.159	0.0034
582.441	0.0021
582.724	0.003
583.006	0.0028
583.288	0.0029
583.57	0.0031
583.852	0.0037
584.134	0.0038
584.416	0.0019
584.697	0.003
584.979	0.0019
585.261	0.002
585.542	0.0027
585.824	0.0034
586.105	0.003
586.387	0.0039
586.668	0.0028
586.949	0.0038
587.231	0.0032
587.512	0.0028
587.793	0.0025
588.074	0.0031
588.355	0.0033
588.636	0.0019
588.916	0.003
589.197	0.0021
589.478	0.0032
589.758	0.0022
590.039	0.0017
590.319	0.0014
590.6	0.0024
590.88	0.0019
591.16	0.0032
591.441	0.0036
591.721	0.0022
592.001	0.0027
592.281	0.0034
592.561	0.0032
592.841	0.0022
593.12	0.0019
593.4	0.003
593.68	0.0027
593.959	0.0024
594.239	0.0036
594.518	0.0039
594.798	0.0034
595.077	0.0026
595.356	0.003
595.636	0.0025
595.915	0.0024
596.194	0.003
596.473	0.0029
