Data from 03 0.4 mM K2Cr2O7 0.25 M BQDS 1 M H2SO4 5 min_Absorbance_0101.txt Node
Date: Wed Dec 15 01:55:12 EST 2021
User: kwabilab-user
Spectrometer: HDX00518
Trigger mode: 0
Integration Time (sec): 5.000000E-2
Scans to average: 50
Nonlinearity correction enabled: false
Boxcar width: 0
Storing dark spectrum: false
XAxis mode: Wavelengths
Number of Pixels in Spectrum: 2068
>>>>>Begin Spectral Data<<<<<
195.27	-0.2734
195.642	0.0141
196.014	-0.3632
196.386	-0.0608
196.758	-0.1869
197.129	-0.0558
197.501	-0.0789
197.872	-0.0109
198.244	-0.0395
198.615	0.0102
198.986	-0.0114
199.357	-0.0153
199.728	-0.0119
200.099	-0.0092
200.47	-0.0076
200.841	-0.0331
201.212	-0.0226
201.582	-0.0165
201.953	-0.0043
202.323	-0.0069
202.694	-0.0359
203.064	-0.0254
203.434	-0.0507
203.804	-0.0528
204.174	-0.0224
204.544	-0.015
204.914	-0.0693
205.284	-0.0338
205.653	-0.0475
206.023	-0.0257
206.393	-0.0333
206.762	-0.0314
207.131	-0.0327
207.501	-0.038
207.87	-0.0346
208.239	-0.035
208.608	-0.0392
208.977	-0.0554
209.346	-0.0525
209.715	-0.0232
210.083	-0.0333
210.452	-0.0477
210.82	-0.0305
211.189	-0.0579
211.557	-0.0181
211.925	-0.0458
212.294	-0.0373
212.662	-0.0464
213.03	-0.0447
213.398	-0.0363
213.766	-0.0411
214.133	-0.0204
214.501	-0.0531
214.869	-0.0439
215.236	-0.0565
215.604	-0.0368
215.971	-0.0145
216.338	-0.0239
216.705	-0.0182
217.072	-0.0284
217.439	-0.0296
217.806	-0.021
218.173	-0.0203
218.54	-0.0241
218.907	-0.0034
219.273	-0.0076
219.64	0.0191
220.006	0.0202
220.373	0.0342
220.739	0.042
221.105	0.0653
221.471	0.0665
221.837	0.1047
222.203	0.1217
222.569	0.122
222.935	0.1324
223.3	0.171
223.666	0.1773
224.031	0.1986
224.397	0.2277
224.762	0.2597
225.127	0.2901
225.493	0.2887
225.858	0.3264
226.223	0.3408
226.588	0.3759
226.952	0.3963
227.317	0.4267
227.682	0.4279
228.046	0.4419
228.411	0.4635
228.775	0.4634
229.14	0.4711
229.504	0.5043
229.868	0.509
230.232	0.5324
230.596	0.527
230.96	0.5471
231.324	0.55
231.688	0.5608
232.052	0.5724
232.415	0.5735
232.779	0.5646
233.142	0.5895
233.505	0.5866
233.869	0.5848
234.232	0.581
234.595	0.5832
234.958	0.5958
235.321	0.5822
235.684	0.5946
236.047	0.5831
236.409	0.5882
236.772	0.5876
237.134	0.59
237.497	0.5821
237.859	0.5924
238.222	0.5895
238.584	0.5785
238.946	0.5822
239.308	0.5728
239.67	0.5702
240.032	0.5814
240.393	0.5775
240.755	0.5676
241.117	0.5661
241.478	0.5668
241.84	0.5594
242.201	0.5612
242.562	0.56
242.924	0.5482
243.285	0.5532
243.646	0.5445
244.007	0.5471
244.368	0.5433
244.728	0.5432
245.089	0.5476
245.45	0.5387
245.81	0.5323
246.171	0.5303
246.531	0.534
246.891	0.5339
247.252	0.5239
247.612	0.5344
247.972	0.5271
248.332	0.5226
248.692	0.5245
249.051	0.5219
249.411	0.5272
249.771	0.526
250.13	0.5227
250.49	0.5237
250.849	0.5179
251.208	0.5204
251.568	0.5197
251.927	0.5188
252.286	0.5215
252.645	0.5224
253.004	0.5211
253.363	0.5194
253.721	0.5221
254.08	0.5198
254.439	0.5186
254.797	0.5164
255.155	0.5203
255.514	0.5163
255.872	0.5161
256.23	0.5147
256.588	0.5166
256.946	0.5206
257.304	0.5153
257.662	0.5149
258.02	0.5143
258.377	0.5085
258.735	0.5108
259.093	0.5101
259.45	0.5086
259.807	0.5093
260.165	0.5143
260.522	0.5092
260.879	0.5061
261.236	0.5019
261.593	0.5058
261.95	0.5017
262.306	0.5036
262.663	0.4977
263.02	0.5009
263.376	0.4959
263.733	0.4927
264.089	0.4977
264.445	0.491
264.802	0.4915
265.158	0.4896
265.514	0.4893
265.87	0.487
266.226	0.4853
266.581	0.4838
266.937	0.4771
267.293	0.4812
267.648	0.4788
268.004	0.4748
268.359	0.4731
268.714	0.4651
269.07	0.4681
269.425	0.4662
269.78	0.4633
270.135	0.4633
270.49	0.4593
270.844	0.4592
271.199	0.4593
271.554	0.4475
271.908	0.4506
272.263	0.4486
272.617	0.4437
272.972	0.4387
273.326	0.4405
273.68	0.4345
274.034	0.4345
274.388	0.4288
274.742	0.43
275.096	0.4227
275.45	0.4187
275.803	0.4185
276.157	0.4151
276.51	0.4152
276.864	0.4115
277.217	0.4083
277.571	0.4043
277.924	0.4013
278.277	0.3965
278.63	0.3926
278.983	0.388
279.336	0.3857
279.688	0.3829
280.041	0.378
280.394	0.3727
280.746	0.3717
281.099	0.369
281.451	0.3636
281.803	0.3604
282.156	0.3591
282.508	0.3526
282.86	0.3489
283.212	0.3484
283.564	0.3441
283.916	0.3376
284.267	0.3344
284.619	0.332
284.971	0.3295
285.322	0.3276
285.673	0.323
286.025	0.3175
286.376	0.3155
286.727	0.3127
287.078	0.3081
287.429	0.3057
287.78	0.3
288.131	0.2992
288.482	0.2947
288.833	0.2919
289.183	0.2855
289.534	0.2861
289.884	0.2809
290.235	0.2778
290.585	0.2748
290.935	0.2705
291.285	0.2683
291.635	0.2645
291.985	0.2619
292.335	0.2586
292.685	0.2552
293.035	0.2515
293.384	0.2476
293.734	0.2447
294.083	0.2416
294.433	0.2391
294.782	0.2369
295.131	0.2324
295.48	0.2297
295.829	0.226
296.179	0.2234
296.527	0.2188
296.876	0.2184
297.225	0.2127
297.574	0.2106
297.922	0.2085
298.271	0.2056
298.619	0.2018
298.968	0.1998
299.316	0.1975
299.664	0.195
300.012	0.1928
300.36	0.1887
300.708	0.1863
301.056	0.1844
301.404	0.1821
301.752	0.1801
302.099	0.1766
302.447	0.1754
302.794	0.1728
303.142	0.1704
303.489	0.1676
303.836	0.1668
304.183	0.1642
304.531	0.1628
304.878	0.1608
305.224	0.1582
305.571	0.1569
305.918	0.1558
306.265	0.1525
306.611	0.1526
306.958	0.1511
307.304	0.1504
307.651	0.1484
307.997	0.1466
308.343	0.1454
308.689	0.1448
309.035	0.1438
309.381	0.1416
309.727	0.1412
310.073	0.1408
310.419	0.1401
310.764	0.1397
311.11	0.1384
311.455	0.1377
311.801	0.1363
312.146	0.1365
312.491	0.1361
312.837	0.1354
313.182	0.1342
313.527	0.1334
313.872	0.1345
314.216	0.135
314.561	0.1344
314.906	0.1331
315.251	0.1347
315.595	0.1336
315.94	0.1337
316.284	0.133
316.628	0.1342
316.972	0.1344
317.317	0.1344
317.661	0.1344
318.005	0.1345
318.348	0.1344
318.692	0.135
319.036	0.1358
319.38	0.1367
319.723	0.1357
320.067	0.137
320.41	0.1376
320.754	0.1383
321.097	0.1378
321.44	0.1391
321.783	0.1399
322.126	0.1409
322.469	0.1418
322.812	0.1424
323.155	0.1429
323.498	0.1437
323.84	0.144
324.183	0.1454
324.525	0.1469
324.868	0.1478
325.21	0.1484
325.552	0.1494
325.894	0.1502
326.236	0.1501
326.578	0.1519
326.92	0.1533
327.262	0.1537
327.604	0.155
327.946	0.1554
328.287	0.1567
328.629	0.1581
328.97	0.1591
329.312	0.1598
329.653	0.1615
329.994	0.1624
330.335	0.1628
330.676	0.1647
331.017	0.1661
331.358	0.1675
331.699	0.1683
332.04	0.1692
332.38	0.1702
332.721	0.172
333.061	0.1724
333.402	0.1739
333.742	0.1743
334.083	0.1761
334.423	0.1763
334.763	0.1776
335.103	0.1789
335.443	0.1803
335.783	0.1808
336.123	0.1818
336.462	0.1823
336.802	0.1836
337.141	0.1839
337.481	0.185
337.82	0.1858
338.16	0.1871
338.499	0.1886
338.838	0.1895
339.177	0.19
339.516	0.1905
339.855	0.192
340.194	0.1928
340.533	0.1933
340.872	0.1934
341.21	0.1947
341.549	0.1956
341.887	0.1961
342.226	0.1956
342.564	0.197
342.902	0.1969
343.24	0.1975
343.578	0.1978
343.916	0.1976
344.254	0.1991
344.592	0.1992
344.93	0.1989
345.268	0.1979
345.605	0.1994
345.943	0.1996
346.28	0.1996
346.618	0.1996
346.955	0.1997
347.292	0.2001
347.629	0.1999
347.966	0.1998
348.303	0.2002
348.64	0.2003
348.977	0.2
349.314	0.2008
349.65	0.1994
349.987	0.2
350.324	0.1999
350.66	0.1997
350.996	0.1996
351.333	0.199
351.669	0.1988
352.005	0.1985
352.341	0.1972
352.677	0.1963
353.013	0.1951
353.349	0.1955
353.685	0.1941
354.02	0.194
354.356	0.193
354.691	0.1919
355.027	0.1917
355.362	0.1905
355.697	0.19
356.033	0.1889
356.368	0.1878
356.703	0.1873
357.038	0.1872
357.373	0.1853
357.707	0.1856
358.042	0.1853
358.377	0.1842
358.711	0.1836
359.046	0.1823
359.38	0.1811
359.715	0.1813
360.049	0.1792
360.383	0.1778
360.717	0.1771
361.051	0.1763
361.385	0.1749
361.719	0.1739
362.053	0.1733
362.387	0.1708
362.72	0.1708
363.054	0.1693
363.387	0.1678
363.721	0.1663
364.054	0.1646
364.387	0.1635
364.721	0.1628
365.054	0.1605
365.387	0.159
365.72	0.1584
366.053	0.1573
366.385	0.155
366.718	0.1548
367.051	0.1528
367.383	0.1526
367.716	0.1516
368.048	0.1505
368.381	0.1497
368.713	0.1479
369.045	0.147
369.377	0.1456
369.709	0.1447
370.041	0.1441
370.373	0.1425
370.705	0.1408
371.037	0.1401
371.368	0.1394
371.7	0.137
372.031	0.1361
372.363	0.1345
372.694	0.1338
373.025	0.1319
373.356	0.1307
373.688	0.1291
374.019	0.128
374.35	0.1259
374.68	0.1239
375.011	0.1228
375.342	0.1221
375.673	0.1206
376.003	0.118
376.334	0.1174
376.664	0.116
376.995	0.1147
377.325	0.1132
377.655	0.112
377.985	0.1102
378.315	0.1097
378.645	0.1085
378.975	0.1073
379.305	0.1053
379.635	0.1061
379.964	0.1045
380.294	0.1033
380.623	0.1029
380.953	0.1009
381.282	0.1002
381.611	0.1
381.941	0.0988
382.27	0.0973
382.599	0.0968
382.928	0.0949
383.257	0.0944
383.585	0.0928
383.914	0.0911
384.243	0.09
384.571	0.0891
384.9	0.0877
385.228	0.0856
385.557	0.0853
385.885	0.0837
386.213	0.0828
386.541	0.0811
386.869	0.0804
387.197	0.0789
387.525	0.0782
387.853	0.0767
388.181	0.075
388.508	0.0745
388.836	0.0733
389.164	0.0727
389.491	0.0708
389.818	0.0697
390.146	0.0694
390.473	0.0683
390.8	0.0688
391.127	0.0658
391.454	0.0657
391.781	0.0654
392.108	0.0646
392.435	0.063
392.761	0.0627
393.088	0.0623
393.415	0.0621
393.741	0.0617
394.067	0.0607
394.394	0.06
394.72	0.0585
395.046	0.0577
395.372	0.0568
395.698	0.0565
396.024	0.0555
396.35	0.055
396.676	0.0547
397.001	0.0537
397.327	0.053
397.653	0.0515
397.978	0.0517
398.303	0.0502
398.629	0.05
398.954	0.05
399.279	0.0496
399.604	0.0487
399.929	0.0485
400.254	0.0471
400.579	0.0466
400.904	0.0459
401.229	0.0458
401.553	0.0455
401.878	0.0451
402.202	0.0449
402.527	0.0436
402.851	0.0441
403.175	0.0433
403.5	0.0426
403.824	0.0421
404.148	0.0421
404.472	0.0416
404.796	0.0417
405.119	0.0413
405.443	0.0406
405.767	0.0404
406.09	0.041
406.414	0.0401
406.737	0.0405
407.061	0.0404
407.384	0.0397
407.707	0.0394
408.03	0.0388
408.353	0.039
408.676	0.0391
408.999	0.0387
409.322	0.0383
409.645	0.0382
409.968	0.0385
410.29	0.0384
410.613	0.0388
410.935	0.0374
411.258	0.038
411.58	0.0372
411.902	0.0372
412.224	0.0375
412.546	0.0381
412.868	0.0383
413.19	0.037
413.512	0.037
413.834	0.0371
414.156	0.0377
414.477	0.0367
414.799	0.0379
415.121	0.0369
415.442	0.037
415.763	0.0367
416.085	0.0366
416.406	0.0365
416.727	0.037
417.048	0.0375
417.369	0.0369
417.69	0.0365
418.011	0.0363
418.331	0.0372
418.652	0.0362
418.973	0.0368
419.293	0.0365
419.614	0.0359
419.934	0.0369
420.254	0.0369
420.574	0.0359
420.895	0.0362
421.215	0.0361
421.535	0.0367
421.855	0.0359
422.174	0.0354
422.494	0.0355
422.814	0.0361
423.134	0.0365
423.453	0.0362
423.773	0.0366
424.092	0.0363
424.411	0.0361
424.731	0.0366
425.05	0.0365
425.369	0.0364
425.688	0.036
426.007	0.0363
426.326	0.0364
426.644	0.0361
426.963	0.0357
427.282	0.0367
427.6	0.0362
427.919	0.0364
428.237	0.0372
428.556	0.0365
428.874	0.0365
429.192	0.0362
429.51	0.0358
429.828	0.0365
430.146	0.0364
430.464	0.0361
430.782	0.0364
431.1	0.036
431.418	0.0361
431.735	0.0352
432.053	0.0363
432.37	0.0362
432.688	0.0353
433.005	0.0355
433.322	0.0366
433.639	0.0363
433.957	0.0363
434.274	0.0362
434.591	0.0371
434.907	0.0359
435.224	0.0358
435.541	0.0364
435.858	0.037
436.174	0.0369
436.491	0.0357
436.807	0.0358
437.124	0.0365
437.44	0.0353
437.756	0.0364
438.072	0.0352
438.388	0.0358
438.704	0.0356
439.02	0.0354
439.336	0.0348
439.652	0.036
439.968	0.035
440.283	0.0361
440.599	0.0361
440.914	0.0356
441.23	0.035
441.545	0.0354
441.86	0.0354
442.175	0.0361
442.491	0.035
442.806	0.0356
443.121	0.0344
443.435	0.0349
443.75	0.035
444.065	0.0351
444.38	0.0351
444.694	0.035
445.009	0.0342
445.323	0.0356
445.638	0.0345
445.952	0.0341
446.266	0.0346
446.58	0.033
446.894	0.0344
447.208	0.0335
447.522	0.0341
447.836	0.0343
448.15	0.0341
448.464	0.034
448.777	0.0338
449.091	0.0337
449.404	0.033
449.718	0.0331
450.031	0.0325
450.345	0.033
450.658	0.0327
450.971	0.0331
451.284	0.0321
451.597	0.0338
451.91	0.0328
452.223	0.0332
452.535	0.0326
452.848	0.032
453.161	0.0324
453.473	0.0328
453.786	0.0323
454.098	0.0317
454.411	0.0322
454.723	0.0322
455.035	0.0316
455.347	0.031
455.659	0.0313
455.971	0.0319
456.283	0.032
456.595	0.0322
456.907	0.0313
457.218	0.0318
457.53	0.0308
457.841	0.0303
458.153	0.0308
458.464	0.0308
458.776	0.0307
459.087	0.0307
459.398	0.03
459.709	0.029
460.02	0.0306
460.331	0.0302
460.642	0.0295
460.953	0.0299
461.263	0.0298
461.574	0.0291
461.885	0.0298
462.195	0.0294
462.506	0.0292
462.816	0.0297
463.126	0.0287
463.437	0.028
463.747	0.028
464.057	0.0271
464.367	0.027
464.677	0.0274
464.987	0.027
465.296	0.0274
465.606	0.0269
465.916	0.0267
466.225	0.0271
466.535	0.0266
466.844	0.0275
467.154	0.0271
467.463	0.0271
467.772	0.026
468.081	0.0268
468.39	0.0264
468.699	0.0261
469.008	0.0251
469.317	0.0253
469.626	0.0257
469.935	0.0251
470.243	0.0254
470.552	0.0247
470.86	0.0257
471.169	0.025
471.477	0.0241
471.785	0.0236
472.093	0.0233
472.402	0.0233
472.71	0.0234
473.018	0.0231
473.326	0.0239
473.633	0.023
473.941	0.0235
474.249	0.024
474.556	0.0222
474.864	0.0229
475.171	0.0231
475.479	0.0221
475.786	0.0228
476.094	0.0223
476.401	0.0221
476.708	0.0218
477.015	0.0214
477.322	0.0202
477.629	0.0205
477.936	0.0207
478.242	0.0208
478.549	0.0208
478.856	0.0213
479.162	0.0206
479.469	0.0206
479.775	0.0203
480.081	0.0193
480.388	0.0194
480.694	0.0193
481	0.0192
481.306	0.0191
481.612	0.0195
481.918	0.0202
482.224	0.02
482.53	0.0188
482.835	0.0201
483.141	0.0194
483.446	0.0186
483.752	0.0176
484.057	0.0174
484.363	0.0179
484.668	0.0182
484.973	0.0172
485.278	0.0166
485.583	0.0165
485.888	0.0167
486.193	0.0156
486.498	0.0175
486.803	0.0171
487.107	0.0155
487.412	0.0145
487.717	0.0154
488.021	0.0161
488.325	0.0155
488.63	0.0156
488.934	0.0155
489.238	0.0152
489.542	0.015
489.846	0.0152
490.15	0.0149
490.454	0.016
490.758	0.015
491.062	0.0145
491.366	0.0144
491.669	0.0138
491.973	0.0148
492.276	0.0136
492.58	0.0137
492.883	0.0138
493.186	0.0134
493.489	0.0139
493.792	0.0125
494.096	0.0126
494.399	0.0132
494.701	0.012
495.004	0.0113
495.307	0.0131
495.61	0.0123
495.912	0.0127
496.215	0.0128
496.517	0.0125
496.82	0.0118
497.122	0.0121
497.424	0.0121
497.727	0.0113
498.029	0.0113
498.331	0.0107
498.633	0.011
498.935	0.0105
499.237	0.0116
499.538	0.0107
499.84	0.011
500.142	0.0098
500.443	0.0103
500.745	0.0109
501.046	0.0097
501.348	0.0096
501.649	0.0092
501.95	0.0098
502.251	0.01
502.552	0.0093
502.853	0.0097
503.154	0.01
503.455	0.0099
503.756	0.0094
504.057	0.0083
504.357	0.0088
504.658	0.0092
504.958	0.0088
505.259	0.0088
505.559	0.0078
505.859	0.0085
506.16	0.0077
506.46	0.0083
506.76	0.0081
507.06	0.0071
507.36	0.0073
507.66	0.0084
507.96	0.0089
508.259	0.008
508.559	0.0079
508.859	0.0077
509.158	0.0074
509.457	0.0062
509.757	0.0076
510.056	0.0068
510.355	0.0071
510.655	0.0072
510.954	0.0068
511.253	0.0065
511.552	0.0076
511.851	0.0066
512.149	0.0067
512.448	0.0058
512.747	0.0066
513.045	0.0064
513.344	0.0061
513.642	0.0065
513.941	0.0061
514.239	0.0056
514.537	0.0062
514.836	0.0058
515.134	0.0056
515.432	0.0061
515.73	0.0052
516.028	0.006
516.326	0.0052
516.623	0.005
516.921	0.0053
517.219	0.0061
517.516	0.0051
517.814	0.0055
518.111	0.0047
518.409	0.0053
518.706	0.0057
519.003	0.0044
519.3	0.0046
519.597	0.0049
519.894	0.0046
520.191	0.0062
520.488	0.0059
520.785	0.0046
521.082	0.0055
521.378	0.0056
521.675	0.0039
521.971	0.0043
522.268	0.0049
522.564	0.0045
522.861	0.0055
523.157	0.0045
523.453	0.0048
523.749	0.0047
524.045	0.0041
524.341	0.0044
524.637	0.0045
524.933	0.0051
525.229	0.0055
525.524	0.0037
525.82	0.0052
526.115	0.0044
526.411	0.0047
526.706	0.0044
527.002	0.0044
527.297	0.0038
527.592	0.0043
527.887	0.0034
528.182	0.0033
528.477	0.0048
528.772	0.0032
529.067	0.0048
529.362	0.0043
529.657	0.0043
529.951	0.0033
530.246	0.0033
530.54	0.0028
530.835	0.0032
531.129	0.0035
531.423	0.0031
531.718	0.0033
532.012	0.0033
532.306	0.0035
532.6	0.0034
532.894	0.0036
533.188	0.0026
533.482	0.0033
533.775	0.0028
534.069	0.0038
534.363	0.0034
534.656	0.0031
534.95	0.0022
535.243	0.003
535.536	0.0023
535.83	0.0028
536.123	0.0027
536.416	0.0033
536.709	0.0039
537.002	0.0048
537.295	0.0042
537.588	0.0033
537.881	0.0029
538.173	0.0035
538.466	0.0039
538.759	0.0033
539.051	0.0043
539.344	0.0037
539.636	0.0031
539.928	0.0043
540.22	0.0027
540.513	0.0033
540.805	0.0033
541.097	0.0037
541.389	0.0036
541.681	0.0035
541.972	0.0026
542.264	0.0044
542.556	0.004
542.847	0.0035
543.139	0.0042
543.431	0.0034
543.722	0.0025
544.013	0.004
544.305	0.0032
544.596	0.0036
544.887	0.0033
545.178	0.0048
545.469	0.0044
545.76	0.0043
546.051	0.0051
546.342	0.0033
546.632	0.0046
546.923	0.0031
547.214	0.0029
547.504	0.004
547.795	0.0026
548.085	0.0028
548.375	0.0036
548.666	0.0046
548.956	0.0039
549.246	0.0047
549.536	0.0041
549.826	0.0054
550.116	0.0043
550.406	0.0037
550.695	0.0037
550.985	0.0034
551.275	0.0038
551.564	0.0048
551.854	0.0045
552.143	0.0044
552.433	0.0045
552.722	0.0037
553.011	0.004
553.3	0.0038
553.589	0.0048
553.879	0.004
554.167	0.0036
554.456	0.003
554.745	0.0039
555.034	0.0043
555.323	0.0037
555.611	0.0034
555.9	0.0041
556.188	0.0038
556.477	0.0036
556.765	0.0036
557.053	0.0043
557.342	0.0043
557.63	0.0037
557.918	0.0043
558.206	0.0047
558.494	0.004
558.782	0.0047
559.069	0.0049
559.357	0.0031
559.645	0.0046
559.932	0.0037
560.22	0.005
560.507	0.0027
560.795	0.0037
561.082	0.0022
561.37	0.0034
561.657	0.0037
561.944	0.0026
562.231	0.0038
562.518	0.0034
562.805	0.0041
563.092	0.0035
563.379	0.0036
563.665	0.0037
563.952	0.0049
564.239	0.0047
564.525	0.0041
564.811	0.0035
565.098	0.0032
565.384	0.0034
565.67	0.0034
565.957	0.0036
566.243	0.0036
566.529	0.0029
566.815	0.0035
567.101	0.0033
567.387	0.003
567.672	0.0022
567.958	0.0027
568.244	0.0023
568.529	0.0031
568.815	0.0021
569.1	0.0029
569.386	0.004
569.671	0.0031
569.956	0.0032
570.242	0.0032
570.527	0.0027
570.812	0.0029
571.097	0.0021
571.382	0.0025
571.666	0.0024
571.951	0.0036
572.236	0.0027
572.521	0.0034
572.805	0.0042
573.09	0.0039
573.374	0.0024
573.659	0.0026
573.943	0.0033
574.227	0.0037
574.511	0.0028
574.795	0.0042
575.079	0.0037
575.363	0.0031
575.647	0.0035
575.931	0.004
576.215	0.0034
576.499	0.0029
576.782	0.0023
577.066	0.003
577.349	0.0036
577.633	0.0043
577.916	0.0032
578.2	0.0032
578.483	0.0043
578.766	0.0051
579.049	0.0037
579.332	0.004
579.615	0.0027
579.898	0.0021
580.181	0.0035
580.464	0.0032
580.746	0.0034
581.029	0.0043
581.312	0.0025
581.594	0.0019
581.877	0.0035
582.159	0.0054
582.441	0.003
582.724	0.004
583.006	0.0033
583.288	0.0033
583.57	0.0031
583.852	0.0038
584.134	0.0037
584.416	0.0025
584.697	0.0034
584.979	0.0026
585.261	0.0025
585.542	0.0036
585.824	0.0039
586.105	0.0039
586.387	0.0044
586.668	0.004
586.949	0.0045
587.231	0.0034
587.512	0.0032
587.793	0.0033
588.074	0.0044
588.355	0.0044
588.636	0.0025
588.916	0.0038
589.197	0.0031
589.478	0.0034
589.758	0.0032
590.039	0.0021
590.319	0.0023
590.6	0.0028
590.88	0.0025
591.16	0.0032
591.441	0.0034
591.721	0.0027
592.001	0.0029
592.281	0.0034
592.561	0.0036
592.841	0.0022
593.12	0.002
593.4	0.0036
593.68	0.0037
593.959	0.0029
594.239	0.0036
594.518	0.0049
594.798	0.0035
595.077	0.0028
595.356	0.0034
595.636	0.0035
595.915	0.0031
