Data from 03 0.4 mM K2Cr2O7 0.25 M BQDS 1 M H2SO4 5 min_Absorbance_0272.txt Node
Date: Wed Dec 15 16:10:13 EST 2021
User: kwabilab-user
Spectrometer: HDX00518
Trigger mode: 0
Integration Time (sec): 5.000000E-2
Scans to average: 50
Nonlinearity correction enabled: false
Boxcar width: 0
Storing dark spectrum: false
XAxis mode: Wavelengths
Number of Pixels in Spectrum: 2068
>>>>>Begin Spectral Data<<<<<
195.27	-0.2976
195.642	0.1068
196.014	-0.2495
196.386	0.0708
196.758	-0.0752
197.129	0.0018
197.501	-0.0225
197.872	0.0182
198.244	0.0144
198.615	0.0313
198.986	0.0279
199.357	0.0177
199.728	0.0352
200.099	0.0411
200.47	0.0048
200.841	0.0211
201.212	0.016
201.582	0.0478
201.953	0.0265
202.323	0.0247
202.694	0.0317
203.064	0.016
203.434	0.0085
203.804	0.0267
204.174	0.0019
204.544	0.0235
204.914	0.0037
205.284	0.0245
205.653	0.0248
206.023	0.0278
206.393	0.0193
206.762	0.0141
207.131	0.0198
207.501	0.0297
207.87	0.0511
208.239	0.0101
208.608	0.034
208.977	0.0011
209.346	-0.0025
209.715	0.036
210.083	0.0254
210.452	0.0085
210.82	0.0112
211.189	0.0102
211.557	0.0339
211.925	0.0089
212.294	0.0386
212.662	0.0262
213.03	0.0242
213.398	0.0269
213.766	0.0132
214.133	0.0373
214.501	0.0333
214.869	0.0189
215.236	0.0253
215.604	0.0401
215.971	0.0639
216.338	0.041
216.705	0.0437
217.072	0.0533
217.439	0.0373
217.806	0.0606
218.173	0.0426
218.54	0.0461
218.907	0.0802
219.273	0.071
219.64	0.0659
220.006	0.0717
220.373	0.0974
220.739	0.1059
221.105	0.1322
221.471	0.1539
221.837	0.1536
222.203	0.1675
222.569	0.1857
222.935	0.1997
223.3	0.2282
223.666	0.2567
224.031	0.2726
224.397	0.2844
224.762	0.3056
225.127	0.3334
225.493	0.3458
225.858	0.3955
226.223	0.4177
226.588	0.4275
226.952	0.4245
227.317	0.4708
227.682	0.4749
228.046	0.4969
228.411	0.496
228.775	0.5131
229.14	0.5212
229.504	0.5285
229.868	0.5546
230.232	0.5537
230.596	0.5687
230.96	0.5834
231.324	0.5599
231.688	0.588
232.052	0.592
232.415	0.5863
232.779	0.5904
233.142	0.6067
233.505	0.6072
233.869	0.5973
234.232	0.607
234.595	0.596
234.958	0.5959
235.321	0.6012
235.684	0.5896
236.047	0.5901
236.409	0.5927
236.772	0.5809
237.134	0.5862
237.497	0.5818
237.859	0.591
238.222	0.5792
238.584	0.5745
238.946	0.5693
239.308	0.5602
239.67	0.5665
240.032	0.5576
240.393	0.5482
240.755	0.5505
241.117	0.5564
241.478	0.5446
241.84	0.5413
242.201	0.5383
242.562	0.527
242.924	0.5235
243.285	0.5227
243.646	0.5242
244.007	0.5227
244.368	0.5229
244.728	0.5106
245.089	0.518
245.45	0.5093
245.81	0.5031
246.171	0.5035
246.531	0.5013
246.891	0.5002
247.252	0.4931
247.612	0.4955
247.972	0.4882
248.332	0.4874
248.692	0.4858
249.051	0.484
249.411	0.4837
249.771	0.4853
250.13	0.482
250.49	0.4751
250.849	0.4771
251.208	0.4748
251.568	0.4783
251.927	0.4694
252.286	0.4769
252.645	0.4681
253.004	0.4679
253.363	0.4656
253.721	0.465
254.08	0.4646
254.439	0.464
254.797	0.4582
255.155	0.4642
255.514	0.4608
255.872	0.4614
256.23	0.4549
256.588	0.4558
256.946	0.4604
257.304	0.456
257.662	0.4583
258.02	0.4537
258.377	0.4537
258.735	0.4503
259.093	0.4471
259.45	0.4479
259.807	0.4522
260.165	0.4473
260.522	0.4493
260.879	0.4416
261.236	0.4435
261.593	0.4399
261.95	0.4385
262.306	0.4381
262.663	0.4397
263.02	0.4343
263.376	0.428
263.733	0.4301
264.089	0.4264
264.445	0.4285
264.802	0.4266
265.158	0.4237
265.514	0.4235
265.87	0.4214
266.226	0.4218
266.581	0.4201
266.937	0.4185
267.293	0.4153
267.648	0.4145
268.004	0.4109
268.359	0.4132
268.714	0.4095
269.07	0.405
269.425	0.406
269.78	0.4021
270.135	0.3996
270.49	0.3992
270.844	0.4015
271.199	0.3938
271.554	0.3915
271.908	0.3878
272.263	0.3891
272.617	0.3843
272.972	0.3809
273.326	0.3855
273.68	0.3789
274.034	0.3783
274.388	0.3762
274.742	0.3746
275.096	0.3721
275.45	0.3659
275.803	0.3657
276.157	0.3621
276.51	0.3558
276.864	0.3556
277.217	0.3546
277.571	0.356
277.924	0.3457
278.277	0.3455
278.63	0.34
278.983	0.342
279.336	0.338
279.688	0.3316
280.041	0.3306
280.394	0.327
280.746	0.3234
281.099	0.3202
281.451	0.3184
281.803	0.3151
282.156	0.3138
282.508	0.3086
282.86	0.3071
283.212	0.3051
283.564	0.2987
283.916	0.296
284.267	0.2952
284.619	0.2922
284.971	0.2867
285.322	0.285
285.673	0.2797
286.025	0.2783
286.376	0.2758
286.727	0.272
287.078	0.2668
287.429	0.2665
287.78	0.2626
288.131	0.2611
288.482	0.2569
288.833	0.2538
289.183	0.2509
289.534	0.248
289.884	0.245
290.235	0.2411
290.585	0.239
290.935	0.2352
291.285	0.2325
291.635	0.2315
291.985	0.2286
292.335	0.224
292.685	0.2214
293.035	0.2169
293.384	0.215
293.734	0.2124
294.083	0.2099
294.433	0.207
294.782	0.2044
295.131	0.1998
295.48	0.1974
295.829	0.1938
296.179	0.1913
296.527	0.1887
296.876	0.1864
297.225	0.1828
297.574	0.1811
297.922	0.1782
298.271	0.1757
298.619	0.1718
298.968	0.1705
299.316	0.1677
299.664	0.1651
300.012	0.1632
300.36	0.1602
300.708	0.1582
301.056	0.1567
301.404	0.1545
301.752	0.152
302.099	0.1497
302.447	0.1483
302.794	0.1451
303.142	0.1435
303.489	0.1412
303.836	0.1397
304.183	0.1377
304.531	0.1368
304.878	0.1343
305.224	0.1332
305.571	0.1314
305.918	0.1297
306.265	0.1272
306.611	0.1268
306.958	0.1264
307.304	0.1246
307.651	0.1232
307.997	0.1222
308.343	0.1217
308.689	0.121
309.035	0.1194
309.381	0.1181
309.727	0.1169
310.073	0.1169
310.419	0.1156
310.764	0.1157
311.11	0.1136
311.455	0.1134
311.801	0.113
312.146	0.1124
312.491	0.1117
312.837	0.1116
313.182	0.1107
313.527	0.1105
313.872	0.1105
314.216	0.1109
314.561	0.1093
314.906	0.1098
315.251	0.1101
315.595	0.1097
315.94	0.1101
316.284	0.1101
316.628	0.11
316.972	0.1101
317.317	0.1097
317.661	0.1107
318.005	0.1104
318.348	0.1115
318.692	0.1106
319.036	0.1114
319.38	0.112
319.723	0.1118
320.067	0.1132
320.41	0.1128
320.754	0.1134
321.097	0.1128
321.44	0.1149
321.783	0.1153
322.126	0.1164
322.469	0.1148
322.812	0.117
323.155	0.1178
323.498	0.1184
323.84	0.1184
324.183	0.12
324.525	0.1209
324.868	0.1225
325.21	0.1223
325.552	0.123
325.894	0.1243
326.236	0.1239
326.578	0.1252
326.92	0.126
327.262	0.1268
327.604	0.1275
327.946	0.1291
328.287	0.1289
328.629	0.1298
328.97	0.1309
329.312	0.132
329.653	0.1333
329.994	0.1334
330.335	0.1353
330.676	0.1359
331.017	0.1365
331.358	0.1376
331.699	0.1392
332.04	0.1402
332.38	0.1409
332.721	0.1414
333.061	0.1428
333.402	0.1439
333.742	0.1441
334.083	0.1456
334.423	0.1469
334.763	0.1479
335.103	0.1485
335.443	0.1489
335.783	0.1503
336.123	0.1497
336.462	0.1516
336.802	0.1523
337.141	0.153
337.481	0.1538
337.82	0.1549
338.16	0.1557
338.499	0.1562
338.838	0.1576
339.177	0.158
339.516	0.1588
339.855	0.1593
340.194	0.1593
340.533	0.1603
340.872	0.1611
341.21	0.162
341.549	0.1618
341.887	0.1626
342.226	0.1625
342.564	0.1639
342.902	0.1645
343.24	0.1646
343.578	0.1646
343.916	0.1641
344.254	0.1653
344.592	0.1652
344.93	0.1657
345.268	0.1655
345.605	0.1659
345.943	0.1658
346.28	0.1665
346.618	0.1657
346.955	0.166
347.292	0.1676
347.629	0.1669
347.966	0.1666
348.303	0.1668
348.64	0.1677
348.977	0.1668
349.314	0.1676
349.65	0.167
349.987	0.1676
350.324	0.1666
350.66	0.1673
350.996	0.1666
351.333	0.1662
351.669	0.1658
352.005	0.1662
352.341	0.1654
352.677	0.1641
353.013	0.164
353.349	0.1638
353.685	0.1621
354.02	0.1628
354.356	0.1613
354.691	0.1601
355.027	0.1605
355.362	0.1598
355.697	0.1588
356.033	0.1584
356.368	0.1578
356.703	0.1568
357.038	0.1567
357.373	0.1549
357.707	0.1559
358.042	0.1543
358.377	0.1538
358.711	0.1536
359.046	0.1523
359.38	0.1523
359.715	0.152
360.049	0.151
360.383	0.1493
360.717	0.1485
361.051	0.1473
361.385	0.1474
361.719	0.1459
362.053	0.1457
362.387	0.1434
362.72	0.1434
363.054	0.1418
363.387	0.1407
363.721	0.1397
364.054	0.1383
364.387	0.1367
364.721	0.1359
365.054	0.1349
365.387	0.1338
365.72	0.1324
366.053	0.1315
366.385	0.1298
366.718	0.1292
367.051	0.1283
367.383	0.1271
367.716	0.1266
368.048	0.126
368.381	0.1252
368.713	0.1234
369.045	0.1231
369.377	0.1219
369.709	0.1215
370.041	0.1205
370.373	0.1194
370.705	0.1177
371.037	0.1168
371.368	0.1162
371.7	0.1151
372.031	0.114
372.363	0.1127
372.694	0.1126
373.025	0.1105
373.356	0.1092
373.688	0.1076
374.019	0.1073
374.35	0.1051
374.68	0.1038
375.011	0.1016
375.342	0.101
375.673	0.1007
376.003	0.0986
376.334	0.0981
376.664	0.0965
376.995	0.0953
377.325	0.0937
377.655	0.0924
377.985	0.0918
378.315	0.0914
378.645	0.0897
378.975	0.0899
379.305	0.088
379.635	0.0882
379.964	0.0868
380.294	0.0865
380.623	0.0853
380.953	0.0835
381.282	0.0836
381.611	0.0829
381.941	0.0825
382.27	0.0811
382.599	0.0803
382.928	0.078
383.257	0.0778
383.585	0.077
383.914	0.0754
384.243	0.0745
384.571	0.0736
384.9	0.0729
385.228	0.0713
385.557	0.0703
385.885	0.0688
386.213	0.0685
386.541	0.0672
386.869	0.0665
387.197	0.0653
387.525	0.0644
387.853	0.0629
388.181	0.0623
388.508	0.0616
388.836	0.0599
389.164	0.0591
389.491	0.059
389.818	0.0569
390.146	0.0573
390.473	0.0558
390.8	0.0554
391.127	0.0538
391.454	0.0542
391.781	0.054
392.108	0.0525
392.435	0.0517
392.761	0.0514
393.088	0.0506
393.415	0.0505
393.741	0.0504
394.067	0.05
394.394	0.049
394.72	0.0477
395.046	0.0468
395.372	0.0473
395.698	0.0462
396.024	0.0458
396.35	0.0453
396.676	0.0446
397.001	0.044
397.327	0.0433
397.653	0.0417
397.978	0.0421
398.303	0.0406
398.629	0.0404
398.954	0.0397
399.279	0.0402
399.604	0.0391
399.929	0.0385
400.254	0.0379
400.579	0.0381
400.904	0.0375
401.229	0.0368
401.553	0.0366
401.878	0.037
402.202	0.0365
402.527	0.0355
402.851	0.0361
403.175	0.0344
403.5	0.0346
403.824	0.0345
404.148	0.0345
404.472	0.0339
404.796	0.0342
405.119	0.0337
405.443	0.0333
405.767	0.033
406.09	0.033
406.414	0.0327
406.737	0.0327
407.061	0.0323
407.384	0.0329
407.707	0.0323
408.03	0.0318
408.353	0.0318
408.676	0.0317
408.999	0.0315
409.322	0.0311
409.645	0.0317
409.968	0.0313
410.29	0.0314
410.613	0.0315
410.935	0.0312
411.258	0.0311
411.58	0.0308
411.902	0.031
412.224	0.0312
412.546	0.0307
412.868	0.0314
413.19	0.0304
413.512	0.0311
413.834	0.031
414.156	0.0312
414.477	0.0302
414.799	0.0311
415.121	0.0304
415.442	0.0308
415.763	0.0303
416.085	0.0307
416.406	0.0304
416.727	0.0302
417.048	0.0311
417.369	0.0306
417.69	0.0303
418.011	0.0301
418.331	0.0301
418.652	0.0306
418.973	0.0298
419.293	0.0302
419.614	0.0299
419.934	0.0307
420.254	0.0304
420.574	0.0297
420.895	0.0297
421.215	0.03
421.535	0.0295
421.855	0.0294
422.174	0.0291
422.494	0.0294
422.814	0.0296
423.134	0.03
423.453	0.0304
423.773	0.0302
424.092	0.0297
424.411	0.0299
424.731	0.0297
425.05	0.0304
425.369	0.03
425.688	0.0302
426.007	0.03
426.326	0.03
426.644	0.0301
426.963	0.0296
427.282	0.0299
427.6	0.0299
427.919	0.0297
428.237	0.0303
428.556	0.0303
428.874	0.0306
429.192	0.0298
429.51	0.0295
429.828	0.0298
430.146	0.0299
430.464	0.0292
430.782	0.0293
431.1	0.029
431.418	0.0304
431.735	0.0298
432.053	0.0294
432.37	0.0301
432.688	0.0289
433.005	0.0296
433.322	0.0304
433.639	0.0297
433.957	0.0303
434.274	0.0308
434.591	0.0307
434.907	0.0296
435.224	0.03
435.541	0.0296
435.858	0.03
436.174	0.0299
436.491	0.0293
436.807	0.0292
437.124	0.0295
437.44	0.0299
437.756	0.0298
438.072	0.029
438.388	0.029
438.704	0.0291
439.02	0.0297
439.336	0.0294
439.652	0.0291
439.968	0.0293
440.283	0.0294
440.599	0.0294
440.914	0.0295
441.23	0.0295
441.545	0.0289
441.86	0.0296
442.175	0.0294
442.491	0.029
442.806	0.0289
443.121	0.0283
443.435	0.0283
443.75	0.028
444.065	0.0282
444.38	0.0285
444.694	0.0279
445.009	0.0285
445.323	0.0286
445.638	0.028
445.952	0.0282
446.266	0.0268
446.58	0.0268
446.894	0.0275
447.208	0.0275
447.522	0.0271
447.836	0.0273
448.15	0.0268
448.464	0.0269
448.777	0.0276
449.091	0.0271
449.404	0.027
449.718	0.027
450.031	0.0265
450.345	0.0267
450.658	0.0264
450.971	0.0266
451.284	0.0263
451.597	0.0269
451.91	0.0265
452.223	0.0265
452.535	0.0263
452.848	0.0268
453.161	0.026
453.473	0.0262
453.786	0.0259
454.098	0.0253
454.411	0.0259
454.723	0.0266
455.035	0.0251
455.347	0.026
455.659	0.0261
455.971	0.0261
456.283	0.0256
456.595	0.0255
456.907	0.0257
457.218	0.026
457.53	0.0246
457.841	0.0246
458.153	0.0244
458.464	0.0245
458.776	0.024
459.087	0.0244
459.398	0.024
459.709	0.024
460.02	0.0246
460.331	0.0241
460.642	0.0241
460.953	0.0237
461.263	0.0237
461.574	0.0229
461.885	0.0242
462.195	0.0227
462.506	0.0233
462.816	0.0239
463.126	0.0237
463.437	0.0232
463.747	0.0229
464.057	0.0217
464.367	0.0218
464.677	0.0221
464.987	0.022
465.296	0.021
465.606	0.021
465.916	0.0207
466.225	0.0211
466.535	0.0211
466.844	0.0216
467.154	0.0215
467.463	0.0218
467.772	0.0206
468.081	0.021
468.39	0.0211
468.699	0.0209
469.008	0.0207
469.317	0.0206
469.626	0.0208
469.935	0.02
470.243	0.0198
470.552	0.0199
470.86	0.0206
471.169	0.0198
471.477	0.0191
471.785	0.0194
472.093	0.0197
472.402	0.0192
472.71	0.0192
473.018	0.018
473.326	0.0192
473.633	0.0188
473.941	0.0184
474.249	0.0188
474.556	0.0176
474.864	0.0182
475.171	0.0181
475.479	0.0172
475.786	0.0193
476.094	0.0173
476.401	0.0174
476.708	0.0173
477.015	0.0171
477.322	0.0164
477.629	0.0161
477.936	0.0165
478.242	0.0164
478.549	0.0172
478.856	0.0166
479.162	0.0168
479.469	0.0157
479.775	0.0157
480.081	0.0152
480.388	0.0154
480.694	0.0155
481	0.015
481.306	0.0153
481.612	0.0157
481.918	0.0158
482.224	0.0157
482.53	0.0158
482.835	0.0147
483.141	0.0153
483.446	0.0147
483.752	0.0139
484.057	0.0136
484.363	0.0142
484.668	0.0149
484.973	0.0128
485.278	0.0126
485.583	0.013
485.888	0.0126
486.193	0.011
486.498	0.0129
486.803	0.0138
487.107	0.012
487.412	0.0106
487.717	0.0126
488.021	0.0122
488.325	0.0119
488.63	0.012
488.934	0.0123
489.238	0.0112
489.542	0.012
489.846	0.0115
490.15	0.0113
490.454	0.012
490.758	0.0109
491.062	0.0111
491.366	0.0107
491.669	0.011
491.973	0.0113
492.276	0.0108
492.58	0.0101
492.883	0.0113
493.186	0.0095
493.489	0.0114
493.792	0.0097
494.096	0.0094
494.399	0.01
494.701	0.01
495.004	0.0088
495.307	0.0093
495.61	0.0096
495.912	0.0099
496.215	0.0092
496.517	0.0092
496.82	0.0095
497.122	0.0088
497.424	0.0092
497.727	0.0081
498.029	0.0085
498.331	0.0093
498.633	0.0089
498.935	0.008
499.237	0.0093
499.538	0.0076
499.84	0.0087
500.142	0.0075
500.443	0.0083
500.745	0.0082
501.046	0.0078
501.348	0.0068
501.649	0.0069
501.95	0.0073
502.251	0.008
502.552	0.0069
502.853	0.0077
503.154	0.0083
503.455	0.0064
503.756	0.0074
504.057	0.0066
504.357	0.0071
504.658	0.0062
504.958	0.006
505.259	0.0063
505.559	0.0064
505.859	0.0056
506.16	0.0054
506.46	0.0063
506.76	0.0059
507.06	0.0059
507.36	0.0059
507.66	0.0064
507.96	0.0071
508.259	0.0061
508.559	0.0056
508.859	0.0062
509.158	0.0061
509.457	0.005
509.757	0.0046
510.056	0.0051
510.355	0.0051
510.655	0.0044
510.954	0.0048
511.253	0.0056
511.552	0.0055
511.851	0.0055
512.149	0.0048
512.448	0.0046
512.747	0.0053
513.045	0.005
513.344	0.0051
513.642	0.0052
513.941	0.0058
514.239	0.0054
514.537	0.0046
514.836	0.0047
515.134	0.0042
515.432	0.005
515.73	0.0042
516.028	0.004
516.326	0.0034
516.623	0.0041
516.921	0.0037
517.219	0.0056
517.516	0.0038
517.814	0.005
518.111	0.0042
518.409	0.0052
518.706	0.0048
519.003	0.0044
519.3	0.0036
519.597	0.0034
519.894	0.0036
520.191	0.0052
520.488	0.0056
520.785	0.0038
521.082	0.0046
521.378	0.0049
521.675	0.0033
521.971	0.005
522.268	0.0044
522.564	0.004
522.861	0.0047
523.157	0.0038
523.453	0.0042
523.749	0.0041
524.045	0.0029
524.341	0.0044
524.637	0.0035
524.933	0.0049
525.229	0.005
525.524	0.0033
525.82	0.0035
526.115	0.0027
526.411	0.0034
526.706	0.0033
527.002	0.0034
527.297	0.0032
527.592	0.0046
527.887	0.0024
528.182	0.0032
528.477	0.0028
528.772	0.0032
529.067	0.0037
529.362	0.0038
529.657	0.0039
529.951	0.0034
530.246	0.0033
530.54	0.0041
530.835	0.0035
531.129	0.0045
531.423	0.0046
531.718	0.003
532.012	0.0034
532.306	0.0044
532.6	0.0046
532.894	0.0033
533.188	0.003
533.482	0.0037
533.775	0.0029
534.069	0.003
534.363	0.0027
534.656	0.0035
534.95	0.0037
535.243	0.0027
535.536	0.0024
535.83	0.0032
536.123	0.0025
536.416	0.0037
536.709	0.0035
537.002	0.0041
537.295	0.003
537.588	0.0042
537.881	0.0027
538.173	0.0023
538.466	0.0033
538.759	0.0032
539.051	0.0045
539.344	0.0033
539.636	0.0038
539.928	0.0043
540.22	0.0025
540.513	0.0041
540.805	0.004
541.097	0.0029
541.389	0.0033
541.681	0.0037
541.972	0.0024
542.264	0.004
542.556	0.0043
542.847	0.003
543.139	0.0038
543.431	0.0026
543.722	0.0021
544.013	0.003
544.305	0.0029
544.596	0.003
544.887	0.0031
545.178	0.0041
545.469	0.0035
545.76	0.0043
546.051	0.0041
546.342	0.0029
546.632	0.0034
546.923	0.0033
547.214	0.0027
547.504	0.0033
547.795	0.0031
548.085	0.0028
548.375	0.0039
548.666	0.0046
548.956	0.0038
549.246	0.0045
549.536	0.0044
549.826	0.0048
550.116	0.0054
550.406	0.0041
550.695	0.0043
550.985	0.0044
551.275	0.0053
551.564	0.0053
551.854	0.0052
552.143	0.0047
552.433	0.0049
552.722	0.0051
553.011	0.005
553.3	0.0054
553.589	0.0047
553.879	0.0042
554.167	0.004
554.456	0.0038
554.745	0.0038
555.034	0.0051
555.323	0.0036
555.611	0.0044
555.9	0.0038
556.188	0.0038
556.477	0.0026
556.765	0.0048
557.053	0.0042
557.342	0.0032
557.63	0.0035
557.918	0.0046
558.206	0.0047
558.494	0.0051
558.782	0.0044
559.069	0.0049
559.357	0.005
559.645	0.0046
559.932	0.004
560.22	0.0045
560.507	0.003
560.795	0.0025
561.082	0.0021
561.37	0.0035
561.657	0.0029
561.944	0.0036
562.231	0.0036
562.518	0.0043
562.805	0.0052
563.092	0.0038
563.379	0.0033
563.665	0.0041
563.952	0.0053
564.239	0.0041
564.525	0.0031
564.811	0.004
565.098	0.0034
565.384	0.0044
565.67	0.0053
565.957	0.0049
566.243	0.0056
566.529	0.0046
566.815	0.0051
567.101	0.0051
567.387	0.0042
567.672	0.0037
567.958	0.003
568.244	0.0032
568.529	0.0043
568.815	0.0035
569.1	0.0033
569.386	0.0042
569.671	0.0028
569.956	0.0028
570.242	0.0036
570.527	0.003
570.812	0.0023
571.097	0.0023
571.382	0.0016
571.666	0.0026
571.951	0.0031
572.236	0.002
572.521	0.0027
572.805	0.0035
573.09	0.0031
573.374	0.0015
573.659	0.0019
573.943	0.0024
574.227	0.0038
574.511	0.0029
574.795	0.0031
575.079	0.0033
575.363	0.0024
575.647	0.0032
575.931	0.0032
576.215	0.0031
576.499	0.0022
576.782	0.0028
577.066	0.0026
577.349	0.0037
577.633	0.0035
577.916	0.0029
578.2	0.0032
578.483	0.003
578.766	0.0037
579.049	0.0032
579.332	0.0039
579.615	0.0023
579.898	0.0022
580.181	0.0026
580.464	0.0031
580.746	0.0026
581.029	0.0029
581.312	0.0015
581.594	0.0008
581.877	0.0024
582.159	0.0039
582.441	0.0027
582.724	0.004
583.006	0.0039
583.288	0.0039
583.57	0.0043
583.852	0.0046
584.134	0.0043
584.416	0.0027
584.697	0.0031
584.979	0.002
585.261	0.0026
585.542	0.0029
585.824	0.0029
586.105	0.0028
586.387	0.0029
586.668	0.0033
586.949	0.0043
587.231	0.0032
587.512	0.0033
587.793	0.003
588.074	0.0036
588.355	0.0036
588.636	0.0033
588.916	0.0033
589.197	0.0032
589.478	0.0037
589.758	0.0026
590.039	0.0025
590.319	0.0028
590.6	0.0031
590.88	0.003
591.16	0.0028
591.441	0.0034
591.721	0.0028
592.001	0.002
592.281	0.0034
592.561	0.0032
592.841	0.002
593.12	0.0019
593.4	0.0033
593.68	0.0033
593.959	0.003
594.239	0.0038
594.518	0.0047
594.798	0.0041
595.077	0.0028
595.356	0.0028
595.636	0.004
595.915	0.0039
596.194	0.0034
596.473	0.0038
596.752	0.0039
597.031	0.0038
