Data from 03 0.4 mM K2Cr2O7 0.25 M BQDS 1 M H2SO4 5 min_Absorbance_0262.txt Node
Date: Wed Dec 15 15:20:12 EST 2021
User: kwabilab-user
Spectrometer: HDX00518
Trigger mode: 0
Integration Time (sec): 5.000000E-2
Scans to average: 50
Nonlinearity correction enabled: false
Boxcar width: 0
Storing dark spectrum: false
XAxis mode: Wavelengths
Number of Pixels in Spectrum: 2068
>>>>>Begin Spectral Data<<<<<
195.27	-0.269
195.642	-0.0669
196.014	-0.1413
196.386	-0.2283
196.758	-0.0862
197.129	-0.0075
197.501	-0.0228
197.872	0.0068
198.244	0.0065
198.615	0.0417
198.986	0.0205
199.357	0.02
199.728	0.0298
200.099	0.0277
200.47	0.0268
200.841	0.0267
201.212	0.0215
201.582	0.0244
201.953	0.0156
202.323	0.0317
202.694	0.0103
203.064	0.0234
203.434	-0.0036
203.804	0.0103
204.174	0.0148
204.544	0.0223
204.914	0.0149
205.284	0.0041
205.653	0.015
206.023	0.0106
206.393	0.0217
206.762	0.0163
207.131	0.0095
207.501	0.0339
207.87	0.0336
208.239	0.012
208.608	0.0566
208.977	0.0171
209.346	0.0092
209.715	0.0289
210.083	0.0073
210.452	0.0184
210.82	0.0448
211.189	0.0055
211.557	0.0328
211.925	0.0087
212.294	0.0111
212.662	0.0202
213.03	0.0267
213.398	0.0181
213.766	0.013
214.133	0.0246
214.501	0.0152
214.869	0.0237
215.236	0.0118
215.604	0.0315
215.971	0.0387
216.338	0.0429
216.705	0.0248
217.072	0.0279
217.439	0.0322
217.806	0.0377
218.173	0.0582
218.54	0.048
218.907	0.0548
219.273	0.0329
219.64	0.0917
220.006	0.0695
220.373	0.0775
220.739	0.1015
221.105	0.1254
221.471	0.1247
221.837	0.1585
222.203	0.178
222.569	0.1695
222.935	0.1873
223.3	0.2263
223.666	0.2452
224.031	0.264
224.397	0.2912
224.762	0.3028
225.127	0.3278
225.493	0.3551
225.858	0.377
226.223	0.3962
226.588	0.4295
226.952	0.4124
227.317	0.4629
227.682	0.4682
228.046	0.4673
228.411	0.5004
228.775	0.518
229.14	0.5122
229.504	0.5203
229.868	0.5427
230.232	0.5441
230.596	0.5686
230.96	0.5833
231.324	0.568
231.688	0.581
232.052	0.6051
232.415	0.5802
232.779	0.5822
233.142	0.596
233.505	0.6018
233.869	0.6022
234.232	0.5969
234.595	0.5946
234.958	0.5989
235.321	0.5955
235.684	0.5894
236.047	0.5927
236.409	0.5811
236.772	0.5921
237.134	0.5916
237.497	0.5751
237.859	0.5826
238.222	0.5811
238.584	0.5652
238.946	0.558
239.308	0.5642
239.67	0.5616
240.032	0.5614
240.393	0.5611
240.755	0.5469
241.117	0.5598
241.478	0.5439
241.84	0.5391
242.201	0.5355
242.562	0.5295
242.924	0.5268
243.285	0.5245
243.646	0.5202
244.007	0.5111
244.368	0.5142
244.728	0.5135
245.089	0.5084
245.45	0.5115
245.81	0.5071
246.171	0.5068
246.531	0.4975
246.891	0.4958
247.252	0.4951
247.612	0.4997
247.972	0.488
248.332	0.4892
248.692	0.4891
249.051	0.4838
249.411	0.4849
249.771	0.4796
250.13	0.4823
250.49	0.4798
250.849	0.4759
251.208	0.4798
251.568	0.4784
251.927	0.4716
252.286	0.4754
252.645	0.4675
253.004	0.4703
253.363	0.4671
253.721	0.4691
254.08	0.4676
254.439	0.4637
254.797	0.465
255.155	0.4614
255.514	0.4627
255.872	0.4661
256.23	0.4571
256.588	0.4589
256.946	0.4579
257.304	0.4585
257.662	0.456
258.02	0.4538
258.377	0.455
258.735	0.4569
259.093	0.45
259.45	0.4509
259.807	0.4528
260.165	0.4503
260.522	0.4503
260.879	0.4451
261.236	0.4456
261.593	0.4416
261.95	0.4385
262.306	0.4398
262.663	0.4372
263.02	0.4363
263.376	0.4333
263.733	0.4295
264.089	0.4343
264.445	0.435
264.802	0.4318
265.158	0.4278
265.514	0.427
265.87	0.4251
266.226	0.424
266.581	0.4255
266.937	0.4214
267.293	0.4162
267.648	0.4158
268.004	0.4139
268.359	0.4138
268.714	0.4111
269.07	0.4103
269.425	0.4117
269.78	0.4037
270.135	0.4041
270.49	0.401
270.844	0.4024
271.199	0.3954
271.554	0.3937
271.908	0.3922
272.263	0.3903
272.617	0.3904
272.972	0.3855
273.326	0.3846
273.68	0.3805
274.034	0.378
274.388	0.3762
274.742	0.3764
275.096	0.3707
275.45	0.3673
275.803	0.3667
276.157	0.3636
276.51	0.3601
276.864	0.3585
277.217	0.3558
277.571	0.3571
277.924	0.3496
278.277	0.3469
278.63	0.3414
278.983	0.3407
279.336	0.3369
279.688	0.3372
280.041	0.3315
280.394	0.3277
280.746	0.325
281.099	0.3208
281.451	0.3194
281.803	0.3154
282.156	0.3138
282.508	0.3092
282.86	0.3086
283.212	0.3064
283.564	0.301
283.916	0.2962
284.267	0.2938
284.619	0.2934
284.971	0.2885
285.322	0.2865
285.673	0.2839
286.025	0.2791
286.376	0.2781
286.727	0.2725
287.078	0.2694
287.429	0.2692
287.78	0.2648
288.131	0.2634
288.482	0.2588
288.833	0.255
289.183	0.2513
289.534	0.2504
289.884	0.2459
290.235	0.2429
290.585	0.2414
290.935	0.2369
291.285	0.2332
291.635	0.2309
291.985	0.228
292.335	0.2262
292.685	0.223
293.035	0.2186
293.384	0.2163
293.734	0.212
294.083	0.2106
294.433	0.2064
294.782	0.2051
295.131	0.1996
295.48	0.1991
295.829	0.1941
296.179	0.1934
296.527	0.1903
296.876	0.1878
297.225	0.1835
297.574	0.1813
297.922	0.179
298.271	0.1765
298.619	0.1724
298.968	0.1713
299.316	0.1679
299.664	0.1672
300.012	0.1648
300.36	0.1611
300.708	0.1586
301.056	0.1572
301.404	0.1551
301.752	0.1531
302.099	0.1504
302.447	0.1485
302.794	0.1458
303.142	0.1442
303.489	0.1421
303.836	0.1405
304.183	0.1391
304.531	0.1375
304.878	0.1359
305.224	0.1336
305.571	0.1318
305.918	0.1302
306.265	0.1288
306.611	0.1275
306.958	0.1267
307.304	0.126
307.651	0.1245
307.997	0.1231
308.343	0.1213
308.689	0.1216
309.035	0.1199
309.381	0.1186
309.727	0.118
310.073	0.1169
310.419	0.1166
310.764	0.1161
311.11	0.1145
311.455	0.1146
311.801	0.1135
312.146	0.1136
312.491	0.1133
312.837	0.1131
313.182	0.1122
313.527	0.1115
313.872	0.1118
314.216	0.1115
314.561	0.1104
314.906	0.1104
315.251	0.111
315.595	0.1115
315.94	0.1102
316.284	0.111
316.628	0.1115
316.972	0.1111
317.317	0.111
317.661	0.1115
318.005	0.1112
318.348	0.1117
318.692	0.1125
319.036	0.1122
319.38	0.1124
319.723	0.1128
320.067	0.1141
320.41	0.1139
320.754	0.1144
321.097	0.1144
321.44	0.1148
321.783	0.1162
322.126	0.1173
322.469	0.1165
322.812	0.1176
323.155	0.1177
323.498	0.1183
323.84	0.1196
324.183	0.1208
324.525	0.1214
324.868	0.1227
325.21	0.123
325.552	0.1237
325.894	0.1249
326.236	0.1248
326.578	0.1261
326.92	0.1273
327.262	0.1273
327.604	0.1286
327.946	0.1298
328.287	0.1301
328.629	0.1307
328.97	0.1319
329.312	0.1325
329.653	0.1343
329.994	0.135
330.335	0.1357
330.676	0.1373
331.017	0.1378
331.358	0.1393
331.699	0.1408
332.04	0.1418
332.38	0.142
332.721	0.1433
333.061	0.1438
333.402	0.1444
333.742	0.146
334.083	0.1463
334.423	0.1477
334.763	0.149
335.103	0.1495
335.443	0.1498
335.783	0.1511
336.123	0.1513
336.462	0.1522
336.802	0.1531
337.141	0.154
337.481	0.155
337.82	0.1565
338.16	0.1568
338.499	0.158
338.838	0.158
339.177	0.1591
339.516	0.1597
339.855	0.1604
340.194	0.1617
340.533	0.1607
340.872	0.1619
341.21	0.163
341.549	0.1634
341.887	0.164
342.226	0.1637
342.564	0.1649
342.902	0.1651
343.24	0.1656
343.578	0.1664
343.916	0.166
344.254	0.1664
344.592	0.1672
344.93	0.1672
345.268	0.1671
345.605	0.1673
345.943	0.1678
346.28	0.168
346.618	0.1669
346.955	0.1674
347.292	0.1681
347.629	0.1686
347.966	0.1674
348.303	0.1685
348.64	0.168
348.977	0.1687
349.314	0.169
349.65	0.1685
349.987	0.1688
350.324	0.1677
350.66	0.1691
350.996	0.1677
351.333	0.1677
351.669	0.1676
352.005	0.1674
352.341	0.1661
352.677	0.1664
353.013	0.1642
353.349	0.1646
353.685	0.1637
354.02	0.1632
354.356	0.1628
354.691	0.1619
355.027	0.1614
355.362	0.1604
355.697	0.1596
356.033	0.1596
356.368	0.1584
356.703	0.1581
357.038	0.158
357.373	0.1566
357.707	0.1568
358.042	0.1551
358.377	0.1547
358.711	0.1552
359.046	0.1531
359.38	0.1534
359.715	0.1523
360.049	0.1518
360.383	0.1497
360.717	0.1494
361.051	0.1485
361.385	0.1483
361.719	0.1469
362.053	0.146
362.387	0.1444
362.72	0.1438
363.054	0.1427
363.387	0.1419
363.721	0.1405
364.054	0.139
364.387	0.1375
364.721	0.1366
365.054	0.1355
365.387	0.1346
365.72	0.1338
366.053	0.133
366.385	0.131
366.718	0.1306
367.051	0.1295
367.383	0.1283
367.716	0.1276
368.048	0.1273
368.381	0.1261
368.713	0.1248
369.045	0.1243
369.377	0.1227
369.709	0.1221
370.041	0.121
370.373	0.1199
370.705	0.1191
371.037	0.1179
371.368	0.1175
371.7	0.1158
372.031	0.1145
372.363	0.1136
372.694	0.1122
373.025	0.1109
373.356	0.1099
373.688	0.1083
374.019	0.1076
374.35	0.1054
374.68	0.1045
375.011	0.1032
375.342	0.1022
375.673	0.1004
376.003	0.0989
376.334	0.0987
376.664	0.0974
376.995	0.0961
377.325	0.0949
377.655	0.0934
377.985	0.0926
378.315	0.0918
378.645	0.0907
378.975	0.0903
379.305	0.0879
379.635	0.0883
379.964	0.0871
380.294	0.0865
380.623	0.0856
380.953	0.0844
381.282	0.0838
381.611	0.0834
381.941	0.0823
382.27	0.0813
382.599	0.0805
382.928	0.0791
383.257	0.0779
383.585	0.0776
383.914	0.0764
384.243	0.0747
384.571	0.0739
384.9	0.0727
385.228	0.0718
385.557	0.0707
385.885	0.0692
386.213	0.0692
386.541	0.0679
386.869	0.0668
387.197	0.0656
387.525	0.0645
387.853	0.0633
388.181	0.0621
388.508	0.0621
388.836	0.0605
389.164	0.0598
389.491	0.0589
389.818	0.0578
390.146	0.0577
390.473	0.0567
390.8	0.0565
391.127	0.0548
391.454	0.054
391.781	0.0539
392.108	0.053
392.435	0.0517
392.761	0.0513
393.088	0.0504
393.415	0.0509
393.741	0.0506
394.067	0.0507
394.394	0.0492
394.72	0.0489
395.046	0.0478
395.372	0.0467
395.698	0.0471
396.024	0.046
396.35	0.0456
396.676	0.0449
397.001	0.0439
397.327	0.0437
397.653	0.0427
397.978	0.0421
398.303	0.0414
398.629	0.0406
398.954	0.0399
399.279	0.0407
399.604	0.0398
399.929	0.0397
400.254	0.0386
400.579	0.0378
400.904	0.0372
401.229	0.0374
401.553	0.0369
401.878	0.037
402.202	0.0366
402.527	0.0361
402.851	0.0361
403.175	0.0351
403.5	0.035
403.824	0.0344
404.148	0.0346
404.472	0.034
404.796	0.0342
405.119	0.0337
405.443	0.0338
405.767	0.0334
406.09	0.0335
406.414	0.0328
406.737	0.0336
407.061	0.0327
407.384	0.0329
407.707	0.0328
408.03	0.0318
408.353	0.0316
408.676	0.032
408.999	0.0322
409.322	0.0317
409.645	0.031
409.968	0.0319
410.29	0.0317
410.613	0.0322
410.935	0.0313
411.258	0.0315
411.58	0.0302
411.902	0.0311
412.224	0.0311
412.546	0.0307
412.868	0.0321
413.19	0.0311
413.512	0.0308
413.834	0.0307
414.156	0.0312
414.477	0.0297
414.799	0.0308
415.121	0.0302
415.442	0.0305
415.763	0.0301
416.085	0.0313
416.406	0.0303
416.727	0.0307
417.048	0.031
417.369	0.0308
417.69	0.0303
418.011	0.0307
418.331	0.031
418.652	0.031
418.973	0.0299
419.293	0.0305
419.614	0.0297
419.934	0.031
420.254	0.0305
420.574	0.0295
420.895	0.0306
421.215	0.0302
421.535	0.0296
421.855	0.0292
422.174	0.0287
422.494	0.0296
422.814	0.0301
423.134	0.0303
423.453	0.0301
423.773	0.0309
424.092	0.0301
424.411	0.0301
424.731	0.03
425.05	0.0305
425.369	0.0302
425.688	0.03
426.007	0.0301
426.326	0.0305
426.644	0.0303
426.963	0.0301
427.282	0.0298
427.6	0.0301
427.919	0.0304
428.237	0.0305
428.556	0.0305
428.874	0.0303
429.192	0.0301
429.51	0.0299
429.828	0.0305
430.146	0.0305
430.464	0.0301
430.782	0.0303
431.1	0.0292
431.418	0.0298
431.735	0.0295
432.053	0.0301
432.37	0.0301
432.688	0.0296
433.005	0.0292
433.322	0.0304
433.639	0.0302
433.957	0.0303
434.274	0.0305
434.591	0.0309
434.907	0.0296
435.224	0.0297
435.541	0.03
435.858	0.0304
436.174	0.0303
436.491	0.0299
436.807	0.0293
437.124	0.0296
437.44	0.0294
437.756	0.0304
438.072	0.0296
438.388	0.0293
438.704	0.0297
439.02	0.0297
439.336	0.0296
439.652	0.0297
439.968	0.029
440.283	0.03
440.599	0.0294
440.914	0.0292
441.23	0.0294
441.545	0.0294
441.86	0.0296
442.175	0.0302
442.491	0.0289
442.806	0.0287
443.121	0.0279
443.435	0.0287
443.75	0.0283
444.065	0.029
444.38	0.0283
444.694	0.0283
445.009	0.0286
445.323	0.0288
445.638	0.0276
445.952	0.028
446.266	0.0278
446.58	0.027
446.894	0.0286
447.208	0.0278
447.522	0.0273
447.836	0.0278
448.15	0.0272
448.464	0.0265
448.777	0.0276
449.091	0.0273
449.404	0.0272
449.718	0.0272
450.031	0.0268
450.345	0.0273
450.658	0.0265
450.971	0.0268
451.284	0.0268
451.597	0.0267
451.91	0.0266
452.223	0.0261
452.535	0.0264
452.848	0.0263
453.161	0.0264
453.473	0.026
453.786	0.0254
454.098	0.0266
454.411	0.0259
454.723	0.0267
455.035	0.0256
455.347	0.0254
455.659	0.0256
455.971	0.0257
456.283	0.0261
456.595	0.0262
456.907	0.0262
457.218	0.0256
457.53	0.0246
457.841	0.0251
458.153	0.025
458.464	0.0248
458.776	0.0246
459.087	0.0246
459.398	0.0245
459.709	0.024
460.02	0.0245
460.331	0.0248
460.642	0.0238
460.953	0.024
461.263	0.0239
461.574	0.0227
461.885	0.0241
462.195	0.0232
462.506	0.024
462.816	0.0239
463.126	0.0233
463.437	0.0234
463.747	0.0228
464.057	0.0218
464.367	0.0218
464.677	0.0225
464.987	0.022
465.296	0.0215
465.606	0.0219
465.916	0.0214
466.225	0.0216
466.535	0.0211
466.844	0.0219
467.154	0.0217
467.463	0.0207
467.772	0.021
468.081	0.0218
468.39	0.0212
468.699	0.0208
469.008	0.0211
469.317	0.0211
469.626	0.0213
469.935	0.0193
470.243	0.0211
470.552	0.0201
470.86	0.0203
471.169	0.0204
471.477	0.019
471.785	0.0196
472.093	0.0189
472.402	0.0197
472.71	0.0186
473.018	0.0179
473.326	0.0189
473.633	0.0183
473.941	0.0183
474.249	0.0184
474.556	0.0177
474.864	0.0185
475.171	0.0184
475.479	0.0175
475.786	0.0186
476.094	0.0175
476.401	0.0176
476.708	0.0174
477.015	0.017
477.322	0.0169
477.629	0.017
477.936	0.0168
478.242	0.0172
478.549	0.0164
478.856	0.0164
479.162	0.0162
479.469	0.0169
479.775	0.0156
480.081	0.0154
480.388	0.0154
480.694	0.0153
481	0.0151
481.306	0.0155
481.612	0.015
481.918	0.0162
482.224	0.0154
482.53	0.0155
482.835	0.0154
483.141	0.0151
483.446	0.0146
483.752	0.0139
484.057	0.0135
484.363	0.0143
484.668	0.0143
484.973	0.0133
485.278	0.0127
485.583	0.0123
485.888	0.0125
486.193	0.0119
486.498	0.013
486.803	0.0125
487.107	0.0116
487.412	0.0111
487.717	0.0119
488.021	0.0125
488.325	0.0122
488.63	0.0119
488.934	0.0116
489.238	0.0114
489.542	0.0115
489.846	0.0118
490.15	0.0119
490.454	0.012
490.758	0.0113
491.062	0.011
491.366	0.0108
491.669	0.0111
491.973	0.0105
492.276	0.0113
492.58	0.0101
492.883	0.0111
493.186	0.0101
493.489	0.0103
493.792	0.0094
494.096	0.0093
494.399	0.0094
494.701	0.0096
495.004	0.0089
495.307	0.0093
495.61	0.0096
495.912	0.0097
496.215	0.0092
496.517	0.0094
496.82	0.0081
497.122	0.0089
497.424	0.0083
497.727	0.009
498.029	0.0088
498.331	0.0085
498.633	0.0089
498.935	0.009
499.237	0.0086
499.538	0.0075
499.84	0.0086
500.142	0.0088
500.443	0.0077
500.745	0.0083
501.046	0.0074
501.348	0.0073
501.649	0.0073
501.95	0.0078
502.251	0.0081
502.552	0.0061
502.853	0.0068
503.154	0.008
503.455	0.0069
503.756	0.007
504.057	0.0061
504.357	0.0073
504.658	0.0063
504.958	0.0061
505.259	0.0059
505.559	0.0057
505.859	0.0059
506.16	0.0053
506.46	0.0065
506.76	0.0056
507.06	0.0048
507.36	0.0052
507.66	0.006
507.96	0.0069
508.259	0.0052
508.559	0.0052
508.859	0.0059
509.158	0.0063
509.457	0.0053
509.757	0.0055
510.056	0.0055
510.355	0.0059
510.655	0.0043
510.954	0.0055
511.253	0.006
511.552	0.0054
511.851	0.0046
512.149	0.0053
512.448	0.0036
512.747	0.0051
513.045	0.0045
513.344	0.0041
513.642	0.0049
513.941	0.0051
514.239	0.0037
514.537	0.005
514.836	0.0048
515.134	0.0041
515.432	0.0042
515.73	0.004
516.028	0.0037
516.326	0.0043
516.623	0.0026
516.921	0.0032
517.219	0.0052
517.516	0.0034
517.814	0.0039
518.111	0.0043
518.409	0.0047
518.706	0.0043
519.003	0.0036
519.3	0.0037
519.597	0.004
519.894	0.0025
520.191	0.0047
520.488	0.0047
520.785	0.0038
521.082	0.004
521.378	0.0049
521.675	0.0032
521.971	0.0037
522.268	0.0048
522.564	0.004
522.861	0.005
523.157	0.0029
523.453	0.0036
523.749	0.0035
524.045	0.0037
524.341	0.0046
524.637	0.0037
524.933	0.0046
525.229	0.004
525.524	0.0025
525.82	0.0032
526.115	0.0033
526.411	0.0036
526.706	0.0034
527.002	0.0036
527.297	0.0026
527.592	0.0039
527.887	0.0022
528.182	0.0026
528.477	0.004
528.772	0.0014
529.067	0.0034
529.362	0.0036
529.657	0.0031
529.951	0.0031
530.246	0.0028
530.54	0.0033
530.835	0.0033
531.129	0.0041
531.423	0.0032
531.718	0.0039
532.012	0.0028
532.306	0.0042
532.6	0.0019
532.894	0.0035
533.188	0.0023
533.482	0.0038
533.775	0.0028
534.069	0.003
534.363	0.0025
534.656	0.0029
534.95	0.0027
535.243	0.0032
535.536	0.0026
535.83	0.0031
536.123	0.002
536.416	0.0028
536.709	0.0035
537.002	0.0039
537.295	0.0024
537.588	0.004
537.881	0.0026
538.173	0.0034
538.466	0.0031
538.759	0.0036
539.051	0.0029
539.344	0.0035
539.636	0.0033
539.928	0.0034
540.22	0.0024
540.513	0.0035
540.805	0.0038
541.097	0.0036
541.389	0.0031
541.681	0.0035
541.972	0.0023
542.264	0.003
542.556	0.0037
542.847	0.0029
543.139	0.0034
543.431	0.0033
543.722	0.0021
544.013	0.0022
544.305	0.0024
544.596	0.0019
544.887	0.0033
545.178	0.0039
545.469	0.0027
545.76	0.0036
546.051	0.0036
546.342	0.0021
546.632	0.0038
546.923	0.0034
547.214	0.0015
547.504	0.0036
547.795	0.0021
548.085	0.0033
548.375	0.004
548.666	0.0046
548.956	0.0039
549.246	0.0051
549.536	0.0042
549.826	0.0046
550.116	0.0048
550.406	0.0038
550.695	0.0037
550.985	0.0046
551.275	0.0036
551.564	0.0059
551.854	0.0057
552.143	0.0046
552.433	0.0046
552.722	0.0048
553.011	0.0037
553.3	0.0037
553.589	0.0049
553.879	0.0037
554.167	0.0046
554.456	0.0035
554.745	0.0039
555.034	0.0056
555.323	0.0041
555.611	0.0036
555.9	0.0035
556.188	0.0032
556.477	0.0038
556.765	0.0046
557.053	0.0046
557.342	0.0039
557.63	0.0044
557.918	0.0049
558.206	0.0048
558.494	0.0045
558.782	0.0041
559.069	0.0051
559.357	0.0048
559.645	0.0033
559.932	0.0044
560.22	0.0036
560.507	0.0021
560.795	0.0031
561.082	0.0012
561.37	0.003
561.657	0.003
561.944	0.0039
562.231	0.0028
562.518	0.0035
562.805	0.0039
563.092	0.0028
563.379	0.0023
563.665	0.0038
563.952	0.0043
564.239	0.0048
564.525	0.0029
564.811	0.0041
565.098	0.0038
565.384	0.004
565.67	0.0048
565.957	0.0046
566.243	0.0048
566.529	0.0044
566.815	0.0053
567.101	0.0057
567.387	0.0039
567.672	0.0039
567.958	0.0028
568.244	0.0032
568.529	0.004
568.815	0.0034
569.1	0.0031
569.386	0.0039
569.671	0.0029
569.956	0.0035
570.242	0.003
570.527	0.0025
570.812	0.0024
571.097	0.0023
571.382	0.0015
571.666	0.0012
571.951	0.0026
572.236	0.0021
572.521	0.0029
572.805	0.0033
573.09	0.0031
573.374	0.002
573.659	0.0025
573.943	0.0028
574.227	0.0031
574.511	0.0023
574.795	0.0028
575.079	0.003
575.363	0.0024
575.647	0.0024
575.931	0.0035
576.215	0.0039
576.499	0.0017
576.782	0.0026
577.066	0.002
577.349	0.0035
577.633	0.0031
577.916	0.0024
578.2	0.0032
578.483	0.0031
578.766	0.0039
579.049	0.0029
579.332	0.0032
579.615	0.0025
579.898	0.0017
580.181	0.0034
580.464	0.0031
580.746	0.0027
581.029	0.003
581.312	0.0019
581.594	0.0011
581.877	0.0018
582.159	0.0031
582.441	0.0026
582.724	0.0032
583.006	0.0037
583.288	0.0033
583.57	0.0036
583.852	0.0038
584.134	0.0035
584.416	0.0028
584.697	0.0021
584.979	0.002
585.261	0.002
585.542	0.0027
585.824	0.0032
586.105	0.0024
586.387	0.0025
586.668	0.0027
586.949	0.0032
587.231	0.0031
587.512	0.0031
587.793	0.0026
588.074	0.0029
588.355	0.0038
588.636	0.0029
588.916	0.0032
589.197	0.0028
589.478	0.003
589.758	0.0032
590.039	0.0019
590.319	0.0023
590.6	0.0033
590.88	0.0029
591.16	0.0025
591.441	0.0036
591.721	0.0026
592.001	0.0019
592.281	0.0031
592.561	0.0032
592.841	0.0031
593.12	0.0028
593.4	0.0028
593.68	0.003
593.959	0.0028
594.239	0.0036
594.518	0.0042
594.798	0.0037
595.077	0.0035
595.356	0.0032
595.636	0.0032
595.915	0.0025
596.194	0.0032
596.473	0.0035
