Data from 03 0.4 mM K2Cr2O7 0.25 M BQDS 1 M H2SO4 5 min_Absorbance_0164.txt Node
Date: Wed Dec 15 07:10:13 EST 2021
User: kwabilab-user
Spectrometer: HDX00518
Trigger mode: 0
Integration Time (sec): 5.000000E-2
Scans to average: 50
Nonlinearity correction enabled: false
Boxcar width: 0
Storing dark spectrum: false
XAxis mode: Wavelengths
Number of Pixels in Spectrum: 2068
>>>>>Begin Spectral Data<<<<<
195.27	-0.2485
195.642	-0.0717
196.014	-0.3304
196.386	-0.3075
196.758	-0.1337
197.129	-0.0457
197.501	-0.0801
197.872	-0.028
198.244	-0.0236
198.615	0.0186
198.986	0.0062
199.357	0.0036
199.728	0.0202
200.099	-0.0121
200.47	-0.0066
200.841	-0.0012
201.212	0.0015
201.582	-0.0013
201.953	0.0025
202.323	-0.0054
202.694	-0.0282
203.064	-0.0121
203.434	-0.0297
203.804	-0.0238
204.174	-0.0114
204.544	0.0005
204.914	-0.0195
205.284	-0.0156
205.653	-0.0327
206.023	-0.0122
206.393	-0.0193
206.762	-0.0121
207.131	0.0005
207.501	-0.005
207.87	-0.0208
208.239	-0.0293
208.608	-0.0127
208.977	-0.0276
209.346	-0.0472
209.715	-0.0118
210.083	-0.0007
210.452	-0.0214
210.82	0.0048
211.189	-0.03
211.557	-0.0034
211.925	-0.029
212.294	-0.0229
212.662	-0.0183
213.03	-0.022
213.398	-0.0142
213.766	-0.0128
214.133	-0.0113
214.501	-0.0245
214.869	-0.0302
215.236	-0.0147
215.604	-0.0207
215.971	0.0255
216.338	-0.0092
216.705	-0.0044
217.072	0.0093
217.439	0.0068
217.806	0.009
218.173	0.0132
218.54	0.0112
218.907	0.0429
219.273	0.0276
219.64	0.0463
220.006	0.0412
220.373	0.0424
220.739	0.0708
221.105	0.0905
221.471	0.0852
221.837	0.1154
222.203	0.1231
222.569	0.1176
222.935	0.1512
223.3	0.1796
223.666	0.2028
224.031	0.2311
224.397	0.2354
224.762	0.27
225.127	0.2932
225.493	0.3254
225.858	0.3521
226.223	0.3604
226.588	0.3898
226.952	0.4038
227.317	0.4411
227.682	0.4349
228.046	0.4546
228.411	0.4866
228.775	0.493
229.14	0.4963
229.504	0.5163
229.868	0.518
230.232	0.5261
230.596	0.541
230.96	0.5566
231.324	0.5538
231.688	0.5532
232.052	0.5679
232.415	0.5728
232.779	0.5772
233.142	0.5876
233.505	0.5977
233.869	0.5952
234.232	0.5886
234.595	0.6031
234.958	0.5973
235.321	0.5944
235.684	0.5894
236.047	0.598
236.409	0.5846
236.772	0.5844
237.134	0.5756
237.497	0.5741
237.859	0.5877
238.222	0.5728
238.584	0.5734
238.946	0.5645
239.308	0.5711
239.67	0.5659
240.032	0.5588
240.393	0.5633
240.755	0.5549
241.117	0.5546
241.478	0.5443
241.84	0.5507
242.201	0.5421
242.562	0.5412
242.924	0.5365
243.285	0.53
243.646	0.5354
244.007	0.5352
244.368	0.5316
244.728	0.5252
245.089	0.5269
245.45	0.5187
245.81	0.5141
246.171	0.5119
246.531	0.5181
246.891	0.5134
247.252	0.5126
247.612	0.5168
247.972	0.5093
248.332	0.5033
248.692	0.5075
249.051	0.5044
249.411	0.5016
249.771	0.5048
250.13	0.5013
250.49	0.5045
250.849	0.5006
251.208	0.4991
251.568	0.4996
251.927	0.4983
252.286	0.5031
252.645	0.497
253.004	0.4994
253.363	0.4898
253.721	0.5
254.08	0.4935
254.439	0.4943
254.797	0.4874
255.155	0.4913
255.514	0.4913
255.872	0.4872
256.23	0.4863
256.588	0.4914
256.946	0.4915
257.304	0.4856
257.662	0.4851
258.02	0.4888
258.377	0.4774
258.735	0.4812
259.093	0.4828
259.45	0.4791
259.807	0.4781
260.165	0.4779
260.522	0.4791
260.879	0.4728
261.236	0.4785
261.593	0.4762
261.95	0.4765
262.306	0.4702
262.663	0.4725
263.02	0.4669
263.376	0.4696
263.733	0.4661
264.089	0.4643
264.445	0.4613
264.802	0.4591
265.158	0.4595
265.514	0.4587
265.87	0.458
266.226	0.4534
266.581	0.4529
266.937	0.4551
267.293	0.4488
267.648	0.4455
268.004	0.443
268.359	0.4414
268.714	0.4385
269.07	0.4381
269.425	0.4369
269.78	0.4354
270.135	0.4342
270.49	0.4295
270.844	0.4283
271.199	0.4263
271.554	0.4226
271.908	0.4195
272.263	0.4205
272.617	0.4192
272.972	0.4141
273.326	0.4099
273.68	0.4046
274.034	0.4042
274.388	0.4043
274.742	0.4038
275.096	0.3962
275.45	0.3943
275.803	0.395
276.157	0.3876
276.51	0.3842
276.864	0.3854
277.217	0.3827
277.571	0.3799
277.924	0.3737
278.277	0.3696
278.63	0.367
278.983	0.3642
279.336	0.3604
279.688	0.3578
280.041	0.3552
280.394	0.3509
280.746	0.3482
281.099	0.344
281.451	0.3401
281.803	0.338
282.156	0.3356
282.508	0.3302
282.86	0.3286
283.212	0.3253
283.564	0.3191
283.916	0.3183
284.267	0.313
284.619	0.3122
284.971	0.3074
285.322	0.3058
285.673	0.3015
286.025	0.2994
286.376	0.2975
286.727	0.2908
287.078	0.2877
287.429	0.2855
287.78	0.2809
288.131	0.2767
288.482	0.2744
288.833	0.2732
289.183	0.2672
289.534	0.2659
289.884	0.2612
290.235	0.2592
290.585	0.2558
290.935	0.2529
291.285	0.2505
291.635	0.2453
291.985	0.2431
292.335	0.2403
292.685	0.2369
293.035	0.2332
293.384	0.2309
293.734	0.2284
294.083	0.2241
294.433	0.2221
294.782	0.2196
295.131	0.2141
295.48	0.2134
295.829	0.2096
296.179	0.2078
296.527	0.2036
296.876	0.2002
297.225	0.1968
297.574	0.1953
297.922	0.1926
298.271	0.1887
298.619	0.1864
298.968	0.1853
299.316	0.1823
299.664	0.1795
300.012	0.1773
300.36	0.1745
300.708	0.1718
301.056	0.1705
301.404	0.1676
301.752	0.1655
302.099	0.1635
302.447	0.161
302.794	0.1587
303.142	0.1562
303.489	0.1546
303.836	0.1527
304.183	0.1506
304.531	0.1492
304.878	0.1468
305.224	0.1446
305.571	0.144
305.918	0.1426
306.265	0.1398
306.611	0.1392
306.958	0.1382
307.304	0.1374
307.651	0.1366
307.997	0.1343
308.343	0.1325
308.689	0.1324
309.035	0.1311
309.381	0.1307
309.727	0.1295
310.073	0.1295
310.419	0.1274
310.764	0.1274
311.11	0.1262
311.455	0.1261
311.801	0.1257
312.146	0.124
312.491	0.1243
312.837	0.1234
313.182	0.1229
313.527	0.1223
313.872	0.1226
314.216	0.1231
314.561	0.1226
314.906	0.122
315.251	0.1223
315.595	0.1228
315.94	0.1224
316.284	0.1217
316.628	0.1225
316.972	0.1227
317.317	0.1227
317.661	0.1233
318.005	0.1235
318.348	0.1232
318.692	0.1241
319.036	0.1238
319.38	0.1245
319.723	0.1244
320.067	0.1256
320.41	0.1261
320.754	0.1265
321.097	0.1265
321.44	0.1273
321.783	0.1286
322.126	0.1299
322.469	0.1292
322.812	0.1303
323.155	0.1313
323.498	0.132
323.84	0.1328
324.183	0.1334
324.525	0.1348
324.868	0.1358
325.21	0.1359
325.552	0.1372
325.894	0.138
326.236	0.1389
326.578	0.14
326.92	0.1412
327.262	0.141
327.604	0.1423
327.946	0.1428
328.287	0.1434
328.629	0.1447
328.97	0.1461
329.312	0.1467
329.653	0.1484
329.994	0.1494
330.335	0.1501
330.676	0.1515
331.017	0.1525
331.358	0.1537
331.699	0.1546
332.04	0.156
332.38	0.1565
332.721	0.1579
333.061	0.1583
333.402	0.1599
333.742	0.1613
334.083	0.1615
334.423	0.1631
334.763	0.1638
335.103	0.1653
335.443	0.166
335.783	0.1666
336.123	0.1666
336.462	0.168
336.802	0.1693
337.141	0.1702
337.481	0.1709
337.82	0.1715
338.16	0.1726
338.499	0.1732
338.838	0.1748
339.177	0.175
339.516	0.1765
339.855	0.1773
340.194	0.1772
340.533	0.1782
340.872	0.1788
341.21	0.1797
341.549	0.1802
341.887	0.1807
342.226	0.1808
342.564	0.1818
342.902	0.1819
343.24	0.1823
343.578	0.1834
343.916	0.183
344.254	0.1832
344.592	0.1845
344.93	0.1837
345.268	0.1838
345.605	0.184
345.943	0.1837
346.28	0.1839
346.618	0.1844
346.955	0.1842
347.292	0.1855
347.629	0.1845
347.966	0.1849
348.303	0.1851
348.64	0.1856
348.977	0.1859
349.314	0.1853
349.65	0.1854
349.987	0.1857
350.324	0.1849
350.66	0.1862
350.996	0.1845
351.333	0.1845
351.669	0.1836
352.005	0.1836
352.341	0.1826
352.677	0.182
353.013	0.1816
353.349	0.1804
353.685	0.1801
354.02	0.1791
354.356	0.179
354.691	0.1776
355.027	0.1774
355.362	0.1767
355.697	0.1761
356.033	0.1755
356.368	0.1754
356.703	0.1737
357.038	0.1732
357.373	0.1722
357.707	0.1723
358.042	0.1713
358.377	0.1707
358.711	0.1702
359.046	0.1686
359.38	0.1683
359.715	0.1677
360.049	0.1662
360.383	0.1651
360.717	0.1639
361.051	0.1631
361.385	0.1625
361.719	0.1615
362.053	0.1602
362.387	0.1589
362.72	0.1578
363.054	0.1567
363.387	0.1552
363.721	0.1545
364.054	0.153
364.387	0.1515
364.721	0.15
365.054	0.1495
365.387	0.1475
365.72	0.147
366.053	0.1453
366.385	0.1438
366.718	0.1437
367.051	0.1415
367.383	0.1413
367.716	0.1411
368.048	0.1392
368.381	0.1388
368.713	0.1363
369.045	0.1368
369.377	0.1352
369.709	0.1346
370.041	0.1328
370.373	0.1324
370.705	0.1312
371.037	0.1296
371.368	0.129
371.7	0.1277
372.031	0.1267
372.363	0.1249
372.694	0.1243
373.025	0.1219
373.356	0.1206
373.688	0.1196
374.019	0.1182
374.35	0.1164
374.68	0.115
375.011	0.1137
375.342	0.1127
375.673	0.1113
376.003	0.1091
376.334	0.1087
376.664	0.1072
376.995	0.106
377.325	0.1044
377.655	0.103
377.985	0.1017
378.315	0.1008
378.645	0.1002
378.975	0.0992
379.305	0.098
379.635	0.0978
379.964	0.0968
380.294	0.0958
380.623	0.0943
380.953	0.0934
381.282	0.0924
381.611	0.0924
381.941	0.0909
382.27	0.0902
382.599	0.0894
382.928	0.0877
383.257	0.087
383.585	0.0861
383.914	0.0843
384.243	0.0835
384.571	0.082
384.9	0.0813
385.228	0.0792
385.557	0.0781
385.885	0.0772
386.213	0.076
386.541	0.0749
386.869	0.0739
387.197	0.0724
387.525	0.0719
387.853	0.0701
388.181	0.0694
388.508	0.0682
388.836	0.0674
389.164	0.0664
389.491	0.0662
389.818	0.064
390.146	0.0647
390.473	0.0629
390.8	0.0625
391.127	0.0607
391.454	0.0608
391.781	0.0602
392.108	0.059
392.435	0.0577
392.761	0.0574
393.088	0.057
393.415	0.0567
393.741	0.0566
394.067	0.0561
394.394	0.055
394.72	0.0539
395.046	0.053
395.372	0.0529
395.698	0.0516
396.024	0.0509
396.35	0.0506
396.676	0.0499
397.001	0.0493
397.327	0.0482
397.653	0.0475
397.978	0.047
398.303	0.0465
398.629	0.0454
398.954	0.0453
399.279	0.0457
399.604	0.0446
399.929	0.0443
400.254	0.0431
400.579	0.0427
400.904	0.0418
401.229	0.0419
401.553	0.0415
401.878	0.0417
402.202	0.0411
402.527	0.0404
402.851	0.04
403.175	0.0389
403.5	0.0392
403.824	0.0386
404.148	0.0386
404.472	0.0385
404.796	0.0382
405.119	0.0375
405.443	0.0379
405.767	0.0373
406.09	0.0374
406.414	0.0372
406.737	0.0368
407.061	0.0369
407.384	0.0365
407.707	0.0362
408.03	0.0359
408.353	0.0351
408.676	0.0354
408.999	0.0357
409.322	0.0353
409.645	0.0353
409.968	0.0357
410.29	0.0352
410.613	0.0363
410.935	0.0345
411.258	0.0348
411.58	0.0345
411.902	0.0341
412.224	0.0347
412.546	0.0347
412.868	0.0352
413.19	0.0348
413.512	0.034
413.834	0.0342
414.156	0.0348
414.477	0.0332
414.799	0.035
415.121	0.0333
415.442	0.0339
415.763	0.0336
416.085	0.0339
416.406	0.0334
416.727	0.0344
417.048	0.0343
417.369	0.0338
417.69	0.0345
418.011	0.0338
418.331	0.0332
418.652	0.034
418.973	0.0338
419.293	0.0341
419.614	0.0331
419.934	0.0341
420.254	0.0341
420.574	0.0326
420.895	0.0332
421.215	0.0338
421.535	0.0338
421.855	0.0333
422.174	0.0324
422.494	0.0332
422.814	0.0331
423.134	0.0334
423.453	0.0339
423.773	0.0344
424.092	0.0339
424.411	0.0342
424.731	0.034
425.05	0.0337
425.369	0.0337
425.688	0.0339
426.007	0.0334
426.326	0.0345
426.644	0.0335
426.963	0.0331
427.282	0.0338
427.6	0.0339
427.919	0.0335
428.237	0.0338
428.556	0.0336
428.874	0.0335
429.192	0.0338
429.51	0.0329
429.828	0.033
430.146	0.0332
430.464	0.033
430.782	0.0332
431.1	0.0325
431.418	0.0334
431.735	0.033
432.053	0.0337
432.37	0.0335
432.688	0.033
433.005	0.0327
433.322	0.0341
433.639	0.0337
433.957	0.0335
434.274	0.0338
434.591	0.0339
434.907	0.0329
435.224	0.0333
435.541	0.034
435.858	0.0347
436.174	0.0342
436.491	0.0333
436.807	0.0326
437.124	0.0332
437.44	0.0329
437.756	0.0337
438.072	0.0327
438.388	0.0329
438.704	0.033
439.02	0.033
439.336	0.0323
439.652	0.0337
439.968	0.0334
440.283	0.0335
440.599	0.0334
440.914	0.033
441.23	0.0329
441.545	0.0334
441.86	0.0335
442.175	0.0333
442.491	0.0326
442.806	0.0328
443.121	0.0323
443.435	0.0326
443.75	0.0324
444.065	0.0325
444.38	0.0326
444.694	0.0327
445.009	0.0325
445.323	0.0321
445.638	0.0318
445.952	0.032
446.266	0.0307
446.58	0.0305
446.894	0.0316
447.208	0.0312
447.522	0.0311
447.836	0.0312
448.15	0.0311
448.464	0.0304
448.777	0.0311
449.091	0.0306
449.404	0.0304
449.718	0.0307
450.031	0.03
450.345	0.0302
450.658	0.0302
450.971	0.0303
451.284	0.0304
451.597	0.0299
451.91	0.0291
452.223	0.03
452.535	0.0292
452.848	0.0299
453.161	0.0301
453.473	0.0303
453.786	0.0291
454.098	0.029
454.411	0.0294
454.723	0.0296
455.035	0.0288
455.347	0.0282
455.659	0.0299
455.971	0.0289
456.283	0.0291
456.595	0.029
456.907	0.0295
457.218	0.0294
457.53	0.0279
457.841	0.0284
458.153	0.0285
458.464	0.0279
458.776	0.0281
459.087	0.0278
459.398	0.028
459.709	0.0275
460.02	0.0281
460.331	0.0282
460.642	0.0273
460.953	0.0269
461.263	0.0271
461.574	0.0258
461.885	0.0276
462.195	0.0265
462.506	0.0267
462.816	0.027
463.126	0.0262
463.437	0.0271
463.747	0.0253
464.057	0.0245
464.367	0.0243
464.677	0.0256
464.987	0.0248
465.296	0.0247
465.606	0.0246
465.916	0.0238
466.225	0.0247
466.535	0.0247
466.844	0.0247
467.154	0.0252
467.463	0.0244
467.772	0.0234
468.081	0.0237
468.39	0.024
468.699	0.0239
469.008	0.0239
469.317	0.0235
469.626	0.0241
469.935	0.023
470.243	0.0232
470.552	0.023
470.86	0.0241
471.169	0.0228
471.477	0.0221
471.785	0.0218
472.093	0.0216
472.402	0.022
472.71	0.0209
473.018	0.0206
473.326	0.022
473.633	0.0212
473.941	0.02
474.249	0.0221
474.556	0.0204
474.864	0.0208
475.171	0.0209
475.479	0.0199
475.786	0.0212
476.094	0.0201
476.401	0.0198
476.708	0.02
477.015	0.0196
477.322	0.0189
477.629	0.0189
477.936	0.0194
478.242	0.0192
478.549	0.0196
478.856	0.0186
479.162	0.019
479.469	0.0181
479.775	0.018
480.081	0.0174
480.388	0.0175
480.694	0.0173
481	0.0179
481.306	0.0181
481.612	0.0178
481.918	0.0185
482.224	0.0173
482.53	0.0171
482.835	0.0169
483.141	0.0175
483.446	0.0172
483.752	0.0162
484.057	0.016
484.363	0.0162
484.668	0.016
484.973	0.0156
485.278	0.0147
485.583	0.0147
485.888	0.0149
486.193	0.0136
486.498	0.015
486.803	0.0151
487.107	0.0142
487.412	0.0127
487.717	0.0134
488.021	0.0147
488.325	0.0139
488.63	0.0141
488.934	0.0143
489.238	0.014
489.542	0.0129
489.846	0.0132
490.15	0.0137
490.454	0.014
490.758	0.013
491.062	0.0128
491.366	0.0129
491.669	0.0129
491.973	0.0132
492.276	0.0119
492.58	0.0119
492.883	0.0125
493.186	0.0118
493.489	0.0124
493.792	0.0105
494.096	0.0113
494.399	0.0113
494.701	0.0112
495.004	0.0109
495.307	0.0119
495.61	0.0111
495.912	0.012
496.215	0.0109
496.517	0.0112
496.82	0.011
497.122	0.0113
497.424	0.0114
497.727	0.0104
498.029	0.01
498.331	0.0099
498.633	0.0096
498.935	0.0091
499.237	0.0099
499.538	0.0093
499.84	0.0102
500.142	0.0094
500.443	0.0089
500.745	0.0094
501.046	0.0102
501.348	0.0087
501.649	0.0076
501.95	0.009
502.251	0.0093
502.552	0.0077
502.853	0.0092
503.154	0.0096
503.455	0.0081
503.756	0.0085
504.057	0.0084
504.357	0.0086
504.658	0.0083
504.958	0.0078
505.259	0.0082
505.559	0.0071
505.859	0.0067
506.16	0.0067
506.46	0.0071
506.76	0.0065
507.06	0.0056
507.36	0.0063
507.66	0.0072
507.96	0.0084
508.259	0.007
508.559	0.007
508.859	0.0072
509.158	0.0072
509.457	0.0056
509.757	0.0063
510.056	0.0064
510.355	0.0062
510.655	0.0053
510.954	0.0052
511.253	0.0063
511.552	0.006
511.851	0.0056
512.149	0.0058
512.448	0.0051
512.747	0.0056
513.045	0.0052
513.344	0.0052
513.642	0.0063
513.941	0.0062
514.239	0.0053
514.537	0.0056
514.836	0.0048
515.134	0.006
515.432	0.0051
515.73	0.0041
516.028	0.0047
516.326	0.0041
516.623	0.004
516.921	0.0036
517.219	0.0057
517.516	0.0039
517.814	0.0054
518.111	0.0048
518.409	0.0049
518.706	0.0057
519.003	0.0045
519.3	0.0037
519.597	0.0053
519.894	0.0041
520.191	0.0055
520.488	0.0045
520.785	0.0033
521.082	0.0051
521.378	0.0049
521.675	0.0039
521.971	0.0039
522.268	0.0051
522.564	0.0046
522.861	0.0048
523.157	0.0051
523.453	0.005
523.749	0.0041
524.045	0.0029
524.341	0.0038
524.637	0.0044
524.933	0.0056
525.229	0.005
525.524	0.0035
525.82	0.0048
526.115	0.0039
526.411	0.0039
526.706	0.005
527.002	0.0042
527.297	0.0029
527.592	0.0041
527.887	0.0032
528.182	0.0028
528.477	0.0041
528.772	0.0032
529.067	0.0037
529.362	0.0041
529.657	0.0031
529.951	0.004
530.246	0.0019
530.54	0.0031
530.835	0.0039
531.129	0.0032
531.423	0.0023
531.718	0.003
532.012	0.0027
532.306	0.0037
532.6	0.0021
532.894	0.0033
533.188	0.0023
533.482	0.0031
533.775	0.0021
534.069	0.0032
534.363	0.0022
534.656	0.0023
534.95	0.0018
535.243	0.003
535.536	0.0025
535.83	0.0029
536.123	0.0021
536.416	0.0036
536.709	0.0033
537.002	0.0037
537.295	0.0035
537.588	0.0036
537.881	0.0021
538.173	0.003
538.466	0.0033
538.759	0.0042
539.051	0.0037
539.344	0.0039
539.636	0.0033
539.928	0.0053
540.22	0.0027
540.513	0.0031
540.805	0.0035
541.097	0.0039
541.389	0.0033
541.681	0.0036
541.972	0.0034
542.264	0.0038
542.556	0.0041
542.847	0.0032
543.139	0.0039
543.431	0.0024
543.722	0.0028
544.013	0.0037
544.305	0.0026
544.596	0.003
544.887	0.0034
545.178	0.0045
545.469	0.0041
545.76	0.0039
546.051	0.0038
546.342	0.0043
546.632	0.0038
546.923	0.0026
547.214	0.0029
547.504	0.0036
547.795	0.003
548.085	0.0033
548.375	0.0034
548.666	0.0047
548.956	0.0032
549.246	0.0045
549.536	0.0042
549.826	0.0051
550.116	0.0043
550.406	0.0029
550.695	0.0043
550.985	0.004
551.275	0.0042
551.564	0.0046
551.854	0.0044
552.143	0.0033
552.433	0.0038
552.722	0.003
553.011	0.0033
553.3	0.0036
553.589	0.0043
553.879	0.0042
554.167	0.003
554.456	0.0042
554.745	0.0042
555.034	0.004
555.323	0.0034
555.611	0.0041
555.9	0.0034
556.188	0.0037
556.477	0.0042
556.765	0.0047
557.053	0.0042
557.342	0.0034
557.63	0.0044
557.918	0.0035
558.206	0.0042
558.494	0.0044
558.782	0.0033
559.069	0.0046
559.357	0.0039
559.645	0.0037
559.932	0.0042
560.22	0.0034
560.507	0.0016
560.795	0.0032
561.082	0.0014
561.37	0.0036
561.657	0.0021
561.944	0.0031
562.231	0.0034
562.518	0.0041
562.805	0.0035
563.092	0.0027
563.379	0.0033
563.665	0.0026
563.952	0.0045
564.239	0.0045
564.525	0.0035
564.811	0.0045
565.098	0.0036
565.384	0.0033
565.67	0.004
565.957	0.0029
566.243	0.0053
566.529	0.0036
566.815	0.0041
567.101	0.0025
567.387	0.0031
567.672	0.003
567.958	0.0027
568.244	0.0021
568.529	0.0032
568.815	0.0026
569.1	0.0019
569.386	0.0047
569.671	0.003
569.956	0.0031
570.242	0.0026
570.527	0.0024
570.812	0.0028
571.097	0.0028
571.382	0.0018
571.666	0.0024
571.951	0.0032
572.236	0.003
572.521	0.0034
572.805	0.0038
573.09	0.0034
573.374	0.0023
573.659	0.0025
573.943	0.0028
574.227	0.0034
574.511	0.003
574.795	0.003
575.079	0.0028
575.363	0.0027
575.647	0.0024
575.931	0.0042
576.215	0.003
576.499	0.0026
576.782	0.0022
577.066	0.0028
577.349	0.0033
577.633	0.003
577.916	0.0024
578.2	0.0029
578.483	0.0036
578.766	0.0048
579.049	0.0029
579.332	0.0037
579.615	0.0025
579.898	0.0025
580.181	0.0037
580.464	0.003
580.746	0.0032
581.029	0.0027
581.312	0.0019
581.594	0.0017
581.877	0.0025
582.159	0.0045
582.441	0.0025
582.724	0.0034
583.006	0.0039
583.288	0.0036
583.57	0.0035
583.852	0.0039
584.134	0.0035
584.416	0.002
584.697	0.0033
584.979	0.0022
585.261	0.0025
585.542	0.0026
585.824	0.0041
586.105	0.0029
586.387	0.004
586.668	0.0031
586.949	0.0043
587.231	0.0042
587.512	0.0036
587.793	0.0026
588.074	0.0031
588.355	0.0026
588.636	0.0029
588.916	0.0035
589.197	0.003
589.478	0.0037
589.758	0.0026
590.039	0.0026
590.319	0.002
590.6	0.0033
590.88	0.0024
591.16	0.003
591.441	0.0038
591.721	0.0026
592.001	0.0024
592.281	0.0032
592.561	0.0028
592.841	0.0024
593.12	0.002
593.4	0.0029
593.68	0.0029
593.959	0.0022
594.239	0.0031
594.518	0.004
594.798	0.0037
595.077	0.0023
595.356	0.0028
595.636	0.0027
595.915	0.0027
