Data from 03 0.4 mM K2Cr2O7 0.25 M BQDS 1 M H2SO4 5 min_Absorbance_0238.txt Node
Date: Wed Dec 15 13:20:13 EST 2021
User: kwabilab-user
Spectrometer: HDX00518
Trigger mode: 0
Integration Time (sec): 5.000000E-2
Scans to average: 50
Nonlinearity correction enabled: false
Boxcar width: 0
Storing dark spectrum: false
XAxis mode: Wavelengths
Number of Pixels in Spectrum: 2068
>>>>>Begin Spectral Data<<<<<
195.27	-0.2962
195.642	-0.1453
196.014	-0.31
196.386	-0.3415
196.758	-0.1238
197.129	-0.0527
197.501	-0.0531
197.872	-0.0135
198.244	-0.0116
198.615	-0.0031
198.986	-0.0013
199.357	0.0003
199.728	0.0089
200.099	-0.0185
200.47	0.0013
200.841	0.0025
201.212	-0.0121
201.582	-0.0195
201.953	-0.0051
202.323	0.002
202.694	-0.0052
203.064	0.0055
203.434	-0.0133
203.804	-0.0105
204.174	-0.0055
204.544	-0.0084
204.914	-0.0212
205.284	-0.0222
205.653	-0.0133
206.023	-0.0121
206.393	-0.0086
206.762	0.0045
207.131	-0.0027
207.501	-0.0128
207.87	-0.0023
208.239	-0.026
208.608	0.0029
208.977	-0.0105
209.346	-0.0153
209.715	-0.0081
210.083	-0.0086
210.452	-0.0131
210.82	-0.0062
211.189	-0.0107
211.557	-0.0073
211.925	-0.0152
212.294	-0.0043
212.662	-0.0075
213.03	-0.0232
213.398	-0.0082
213.766	-0.0013
214.133	-0.0049
214.501	-0.025
214.869	-0.0164
215.236	-0.0211
215.604	-0.0072
215.971	0.0125
216.338	-0.0019
216.705	0.0178
217.072	-0.0017
217.439	0.0081
217.806	0.0089
218.173	0.0319
218.54	0.0139
218.907	0.0388
219.273	0.017
219.64	0.0318
220.006	0.0448
220.373	0.0539
220.739	0.0695
221.105	0.096
221.471	0.1043
221.837	0.1197
222.203	0.1287
222.569	0.1595
222.935	0.1474
223.3	0.1935
223.666	0.2135
224.031	0.2521
224.397	0.2482
224.762	0.2624
225.127	0.3022
225.493	0.3317
225.858	0.3401
226.223	0.3708
226.588	0.3852
226.952	0.3991
227.317	0.4307
227.682	0.4531
228.046	0.448
228.411	0.4814
228.775	0.4913
229.14	0.4985
229.504	0.5062
229.868	0.5078
230.232	0.5379
230.596	0.5416
230.96	0.5697
231.324	0.5475
231.688	0.5584
232.052	0.5791
232.415	0.5739
232.779	0.5799
233.142	0.5854
233.505	0.5853
233.869	0.5742
234.232	0.5865
234.595	0.5748
234.958	0.5893
235.321	0.5806
235.684	0.5815
236.047	0.5792
236.409	0.5695
236.772	0.5749
237.134	0.5695
237.497	0.563
237.859	0.5743
238.222	0.572
238.584	0.5614
238.946	0.5625
239.308	0.5556
239.67	0.549
240.032	0.5462
240.393	0.5429
240.755	0.55
241.117	0.5362
241.478	0.5326
241.84	0.5373
242.201	0.5257
242.562	0.5306
242.924	0.5235
243.285	0.5207
243.646	0.5166
244.007	0.5148
244.368	0.5168
244.728	0.507
245.089	0.5086
245.45	0.5073
245.81	0.5075
246.171	0.4967
246.531	0.4896
246.891	0.4956
247.252	0.4955
247.612	0.4942
247.972	0.4887
248.332	0.4853
248.692	0.486
249.051	0.4848
249.411	0.4803
249.771	0.4795
250.13	0.4765
250.49	0.4815
250.849	0.4769
251.208	0.4821
251.568	0.4811
251.927	0.4726
252.286	0.4743
252.645	0.4746
253.004	0.4707
253.363	0.4664
253.721	0.468
254.08	0.4699
254.439	0.4667
254.797	0.46
255.155	0.4621
255.514	0.4625
255.872	0.4615
256.23	0.4586
256.588	0.4632
256.946	0.466
257.304	0.4558
257.662	0.4606
258.02	0.456
258.377	0.4528
258.735	0.4503
259.093	0.4558
259.45	0.4521
259.807	0.4534
260.165	0.4514
260.522	0.4548
260.879	0.4446
261.236	0.448
261.593	0.4467
261.95	0.4453
262.306	0.442
262.663	0.4409
263.02	0.4412
263.376	0.4348
263.733	0.4379
264.089	0.4372
264.445	0.4381
264.802	0.4282
265.158	0.4318
265.514	0.4282
265.87	0.4277
266.226	0.4288
266.581	0.4277
266.937	0.4225
267.293	0.4197
267.648	0.4213
268.004	0.4187
268.359	0.4168
268.714	0.4092
269.07	0.4117
269.425	0.4084
269.78	0.4107
270.135	0.4087
270.49	0.4062
270.844	0.4054
271.199	0.4018
271.554	0.3967
271.908	0.3955
272.263	0.3959
272.617	0.3906
272.972	0.39
273.326	0.3894
273.68	0.3797
274.034	0.3792
274.388	0.3821
274.742	0.3775
275.096	0.3744
275.45	0.3727
275.803	0.3657
276.157	0.3681
276.51	0.3652
276.864	0.3622
277.217	0.361
277.571	0.3569
277.924	0.3535
278.277	0.3491
278.63	0.3482
278.983	0.3448
279.336	0.3413
279.688	0.3396
280.041	0.333
280.394	0.3302
280.746	0.3265
281.099	0.326
281.451	0.3207
281.803	0.3192
282.156	0.317
282.508	0.3122
282.86	0.3102
283.212	0.3069
283.564	0.3031
283.916	0.299
284.267	0.2967
284.619	0.2931
284.971	0.2903
285.322	0.2892
285.673	0.2862
286.025	0.2804
286.376	0.2793
286.727	0.2751
287.078	0.2715
287.429	0.2709
287.78	0.2665
288.131	0.2645
288.482	0.2606
288.833	0.2577
289.183	0.2542
289.534	0.2488
289.884	0.2476
290.235	0.2447
290.585	0.2431
290.935	0.2385
291.285	0.2364
291.635	0.2329
291.985	0.2301
292.335	0.227
292.685	0.2238
293.035	0.2192
293.384	0.2167
293.734	0.2141
294.083	0.2119
294.433	0.2095
294.782	0.2079
295.131	0.2028
295.48	0.2009
295.829	0.1974
296.179	0.1959
296.527	0.1915
296.876	0.1906
297.225	0.1857
297.574	0.1836
297.922	0.1816
298.271	0.1782
298.619	0.1752
298.968	0.174
299.316	0.1702
299.664	0.1683
300.012	0.1666
300.36	0.1628
300.708	0.1606
301.056	0.1581
301.404	0.1555
301.752	0.1544
302.099	0.152
302.447	0.1498
302.794	0.1486
303.142	0.1456
303.489	0.1428
303.836	0.1426
304.183	0.1419
304.531	0.1393
304.878	0.1373
305.224	0.1347
305.571	0.1339
305.918	0.1323
306.265	0.1299
306.611	0.1288
306.958	0.1284
307.304	0.128
307.651	0.1258
307.997	0.1246
308.343	0.1231
308.689	0.1228
309.035	0.1219
309.381	0.12
309.727	0.1191
310.073	0.1184
310.419	0.1177
310.764	0.1181
311.11	0.117
311.455	0.1159
311.801	0.1151
312.146	0.1145
312.491	0.1142
312.837	0.114
313.182	0.1134
313.527	0.1128
313.872	0.1129
314.216	0.1128
314.561	0.1123
314.906	0.1115
315.251	0.1127
315.595	0.1126
315.94	0.1124
316.284	0.1122
316.628	0.1124
316.972	0.1127
317.317	0.1128
317.661	0.1128
318.005	0.1129
318.348	0.113
318.692	0.1135
319.036	0.1143
319.38	0.1148
319.723	0.1141
320.067	0.1147
320.41	0.1156
320.754	0.116
321.097	0.1151
321.44	0.1169
321.783	0.1182
322.126	0.119
322.469	0.1188
322.812	0.1194
323.155	0.1205
323.498	0.1209
323.84	0.1214
324.183	0.1224
324.525	0.1232
324.868	0.125
325.21	0.1249
325.552	0.1251
325.894	0.1272
326.236	0.1271
326.578	0.1284
326.92	0.1287
327.262	0.1295
327.604	0.1303
327.946	0.132
328.287	0.1328
328.629	0.1333
328.97	0.1345
329.312	0.1356
329.653	0.1365
329.994	0.1368
330.335	0.1385
330.676	0.1401
331.017	0.1405
331.358	0.1419
331.699	0.1427
332.04	0.1435
332.38	0.1448
332.721	0.1457
333.061	0.1466
333.402	0.1475
333.742	0.1481
334.083	0.149
334.423	0.15
334.763	0.1519
335.103	0.1518
335.443	0.1526
335.783	0.1543
336.123	0.1541
336.462	0.1553
336.802	0.1556
337.141	0.157
337.481	0.1577
337.82	0.1584
338.16	0.1598
338.499	0.1604
338.838	0.1604
339.177	0.162
339.516	0.1624
339.855	0.1633
340.194	0.1635
340.533	0.1633
340.872	0.1642
341.21	0.1653
341.549	0.1661
341.887	0.1672
342.226	0.1664
342.564	0.1676
342.902	0.1684
343.24	0.1685
343.578	0.1689
343.916	0.1685
344.254	0.17
344.592	0.1701
344.93	0.17
345.268	0.1692
345.605	0.1708
345.943	0.1703
346.28	0.1707
346.618	0.1703
346.955	0.1707
347.292	0.171
347.629	0.1704
347.966	0.1707
348.303	0.1713
348.64	0.1716
348.977	0.1708
349.314	0.1706
349.65	0.1712
349.987	0.172
350.324	0.171
350.66	0.1723
350.996	0.1708
351.333	0.1704
351.669	0.1701
352.005	0.1703
352.341	0.1688
352.677	0.169
353.013	0.1682
353.349	0.1669
353.685	0.1664
354.02	0.1659
354.356	0.1656
354.691	0.1643
355.027	0.1646
355.362	0.1628
355.697	0.1627
356.033	0.1619
356.368	0.1615
356.703	0.1606
357.038	0.1608
357.373	0.1595
357.707	0.1593
358.042	0.158
358.377	0.1576
358.711	0.1576
359.046	0.1559
359.38	0.155
359.715	0.1554
360.049	0.1542
360.383	0.153
360.717	0.1519
361.051	0.1509
361.385	0.151
361.719	0.1493
362.053	0.1491
362.387	0.1459
362.72	0.1459
363.054	0.1449
363.387	0.1439
363.721	0.1429
364.054	0.1414
364.387	0.1403
364.721	0.1385
365.054	0.1376
365.387	0.1366
365.72	0.1357
366.053	0.1344
366.385	0.133
366.718	0.1326
367.051	0.1306
367.383	0.13
367.716	0.13
368.048	0.1284
368.381	0.1285
368.713	0.1266
369.045	0.1258
369.377	0.1249
369.709	0.1237
370.041	0.1228
370.373	0.1223
370.705	0.1209
371.037	0.1195
371.368	0.1186
371.7	0.1168
372.031	0.116
372.363	0.1152
372.694	0.1146
373.025	0.113
373.356	0.1119
373.688	0.1103
374.019	0.1091
374.35	0.1072
374.68	0.1056
375.011	0.1045
375.342	0.1035
375.673	0.1026
376.003	0.1004
376.334	0.1
376.664	0.0984
376.995	0.097
377.325	0.0964
377.655	0.095
377.985	0.0932
378.315	0.093
378.645	0.0922
378.975	0.0917
379.305	0.0897
379.635	0.0902
379.964	0.0886
380.294	0.0887
380.623	0.0872
380.953	0.0858
381.282	0.0854
381.611	0.0841
381.941	0.0837
382.27	0.082
382.599	0.0817
382.928	0.0805
383.257	0.0802
383.585	0.079
383.914	0.0773
384.243	0.0763
384.571	0.0754
384.9	0.0743
385.228	0.073
385.557	0.0721
385.885	0.0701
386.213	0.0705
386.541	0.0682
386.869	0.0678
387.197	0.0665
387.525	0.0653
387.853	0.0641
388.181	0.0636
388.508	0.0622
388.836	0.0606
389.164	0.0607
389.491	0.0597
389.818	0.0587
390.146	0.0581
390.473	0.0573
390.8	0.057
391.127	0.0552
391.454	0.0548
391.781	0.0544
392.108	0.0536
392.435	0.0523
392.761	0.0519
393.088	0.0516
393.415	0.051
393.741	0.0513
394.067	0.0508
394.394	0.0496
394.72	0.0492
395.046	0.0479
395.372	0.0477
395.698	0.0465
396.024	0.0459
396.35	0.0459
396.676	0.0455
397.001	0.0446
397.327	0.0439
397.653	0.0429
397.978	0.0427
398.303	0.042
398.629	0.0413
398.954	0.0408
399.279	0.0407
399.604	0.0395
399.929	0.0393
400.254	0.0386
400.579	0.0386
400.904	0.0379
401.229	0.0381
401.553	0.037
401.878	0.0379
402.202	0.0367
402.527	0.0359
402.851	0.0366
403.175	0.0355
403.5	0.0351
403.824	0.034
404.148	0.0348
404.472	0.0344
404.796	0.0344
405.119	0.0338
405.443	0.0336
405.767	0.0336
406.09	0.0339
406.414	0.0333
406.737	0.0335
407.061	0.0331
407.384	0.0335
407.707	0.0322
408.03	0.0321
408.353	0.0321
408.676	0.0317
408.999	0.0319
409.322	0.0315
409.645	0.0317
409.968	0.032
410.29	0.0316
410.613	0.0315
410.935	0.0311
411.258	0.0321
411.58	0.0304
411.902	0.0311
412.224	0.031
412.546	0.0312
412.868	0.0317
413.19	0.0305
413.512	0.0308
413.834	0.0311
414.156	0.0312
414.477	0.03
414.799	0.0309
415.121	0.0301
415.442	0.031
415.763	0.03
416.085	0.0315
416.406	0.0304
416.727	0.0304
417.048	0.0305
417.369	0.0308
417.69	0.0308
418.011	0.0302
418.331	0.0306
418.652	0.0308
418.973	0.0299
419.293	0.0307
419.614	0.0298
419.934	0.031
420.254	0.0302
420.574	0.0299
420.895	0.0303
421.215	0.0301
421.535	0.0306
421.855	0.0299
422.174	0.0293
422.494	0.0294
422.814	0.0299
423.134	0.0299
423.453	0.0297
423.773	0.0309
424.092	0.031
424.411	0.0302
424.731	0.0303
425.05	0.0307
425.369	0.0298
425.688	0.0302
426.007	0.0298
426.326	0.0303
426.644	0.03
426.963	0.0302
427.282	0.0298
427.6	0.0309
427.919	0.0301
428.237	0.0306
428.556	0.0304
428.874	0.0301
429.192	0.0302
429.51	0.0303
429.828	0.0301
430.146	0.0303
430.464	0.0298
430.782	0.0296
431.1	0.0296
431.418	0.03
431.735	0.0299
432.053	0.0298
432.37	0.0303
432.688	0.0293
433.005	0.0297
433.322	0.0311
433.639	0.0306
433.957	0.0304
434.274	0.0301
434.591	0.0302
434.907	0.0299
435.224	0.0298
435.541	0.0297
435.858	0.0306
436.174	0.0296
436.491	0.0306
436.807	0.0295
437.124	0.0295
437.44	0.0298
437.756	0.0301
438.072	0.0292
438.388	0.0296
438.704	0.0293
439.02	0.0298
439.336	0.0295
439.652	0.0301
439.968	0.0293
440.283	0.0295
440.599	0.0292
440.914	0.0297
441.23	0.0295
441.545	0.0291
441.86	0.0295
442.175	0.0295
442.491	0.0286
442.806	0.0291
443.121	0.0285
443.435	0.0286
443.75	0.028
444.065	0.0286
444.38	0.029
444.694	0.0283
445.009	0.0283
445.323	0.029
445.638	0.0284
445.952	0.0279
446.266	0.0277
446.58	0.0271
446.894	0.0285
447.208	0.0276
447.522	0.0278
447.836	0.0283
448.15	0.0278
448.464	0.0275
448.777	0.0276
449.091	0.0274
449.404	0.0271
449.718	0.027
450.031	0.0263
450.345	0.0274
450.658	0.0268
450.971	0.0265
451.284	0.0262
451.597	0.0265
451.91	0.0266
452.223	0.0265
452.535	0.0266
452.848	0.0256
453.161	0.0264
453.473	0.0266
453.786	0.0262
454.098	0.026
454.411	0.0262
454.723	0.0267
455.035	0.0249
455.347	0.0253
455.659	0.0257
455.971	0.0263
456.283	0.0263
456.595	0.0254
456.907	0.0254
457.218	0.0256
457.53	0.0247
457.841	0.0245
458.153	0.0253
458.464	0.0247
458.776	0.0246
459.087	0.0245
459.398	0.025
459.709	0.0237
460.02	0.0244
460.331	0.0247
460.642	0.0238
460.953	0.0241
461.263	0.0239
461.574	0.0227
461.885	0.024
462.195	0.0232
462.506	0.0233
462.816	0.0238
463.126	0.0224
463.437	0.0235
463.747	0.022
464.057	0.0217
464.367	0.0216
464.677	0.0225
464.987	0.0219
465.296	0.0218
465.606	0.022
465.916	0.0213
466.225	0.0209
466.535	0.0212
466.844	0.0222
467.154	0.0224
467.463	0.0213
467.772	0.0203
468.081	0.0214
468.39	0.0211
468.699	0.0214
469.008	0.0207
469.317	0.0206
469.626	0.0208
469.935	0.02
470.243	0.0211
470.552	0.0204
470.86	0.0202
471.169	0.0195
471.477	0.0188
471.785	0.0194
472.093	0.0193
472.402	0.0192
472.71	0.0189
473.018	0.0183
473.326	0.0186
473.633	0.0186
473.941	0.0182
474.249	0.0186
474.556	0.0173
474.864	0.0184
475.171	0.0183
475.479	0.0169
475.786	0.0182
476.094	0.0177
476.401	0.0173
476.708	0.0172
477.015	0.0174
477.322	0.0162
477.629	0.016
477.936	0.0174
478.242	0.0167
478.549	0.0165
478.856	0.0163
479.162	0.0166
479.469	0.0166
479.775	0.0154
480.081	0.0146
480.388	0.0145
480.694	0.0151
481	0.0148
481.306	0.0153
481.612	0.0154
481.918	0.0154
482.224	0.0151
482.53	0.015
482.835	0.0155
483.141	0.0156
483.446	0.0147
483.752	0.0131
484.057	0.014
484.363	0.0131
484.668	0.0142
484.973	0.013
485.278	0.013
485.583	0.0124
485.888	0.0127
486.193	0.0112
486.498	0.0123
486.803	0.0127
487.107	0.0116
487.412	0.011
487.717	0.0114
488.021	0.0123
488.325	0.0112
488.63	0.012
488.934	0.0109
489.238	0.011
489.542	0.0108
489.846	0.011
490.15	0.011
490.454	0.0119
490.758	0.0111
491.062	0.0108
491.366	0.0105
491.669	0.011
491.973	0.0107
492.276	0.0101
492.58	0.0096
492.883	0.0109
493.186	0.0097
493.489	0.0108
493.792	0.0092
494.096	0.0092
494.399	0.0092
494.701	0.0095
495.004	0.0078
495.307	0.0088
495.61	0.0097
495.912	0.0092
496.215	0.009
496.517	0.0087
496.82	0.0082
497.122	0.0085
497.424	0.0088
497.727	0.0081
498.029	0.008
498.331	0.0082
498.633	0.0082
498.935	0.0083
499.237	0.0092
499.538	0.0076
499.84	0.0072
500.142	0.0069
500.443	0.0081
500.745	0.0085
501.046	0.0077
501.348	0.0062
501.649	0.0061
501.95	0.0068
502.251	0.0071
502.552	0.0057
502.853	0.0072
503.154	0.0074
503.455	0.0071
503.756	0.0068
504.057	0.0059
504.357	0.0059
504.658	0.006
504.958	0.0056
505.259	0.0057
505.559	0.0051
505.859	0.005
506.16	0.005
506.46	0.0058
506.76	0.0053
507.06	0.005
507.36	0.0056
507.66	0.0062
507.96	0.0066
508.259	0.0048
508.559	0.0054
508.859	0.0054
509.158	0.0051
509.457	0.0047
509.757	0.005
510.056	0.0047
510.355	0.0047
510.655	0.0035
510.954	0.005
511.253	0.0044
511.552	0.0047
511.851	0.0046
512.149	0.0046
512.448	0.0037
512.747	0.0045
513.045	0.0033
513.344	0.0041
513.642	0.005
513.941	0.0051
514.239	0.0044
514.537	0.0032
514.836	0.0037
515.134	0.0036
515.432	0.0027
515.73	0.0036
516.028	0.0043
516.326	0.0035
516.623	0.0024
516.921	0.0037
517.219	0.0052
517.516	0.0031
517.814	0.0039
518.111	0.0029
518.409	0.0025
518.706	0.0034
519.003	0.003
519.3	0.0029
519.597	0.0037
519.894	0.0032
520.191	0.0043
520.488	0.0042
520.785	0.0025
521.082	0.004
521.378	0.0034
521.675	0.0024
521.971	0.0032
522.268	0.0034
522.564	0.0025
522.861	0.0039
523.157	0.0032
523.453	0.0028
523.749	0.0031
524.045	0.0029
524.341	0.0023
524.637	0.0024
524.933	0.0039
525.229	0.003
525.524	0.0021
525.82	0.0032
526.115	0.0026
526.411	0.0025
526.706	0.0028
527.002	0.0028
527.297	0.0023
527.592	0.0032
527.887	0.0019
528.182	0.0013
528.477	0.0021
528.772	0.0023
529.067	0.0021
529.362	0.0028
529.657	0.0026
529.951	0.0025
530.246	0.0028
530.54	0.0026
530.835	0.0022
531.129	0.0029
531.423	0.0037
531.718	0.0026
532.012	0.0018
532.306	0.0027
532.6	0.002
532.894	0.0031
533.188	0.0011
533.482	0.0024
533.775	0.0017
534.069	0.0025
534.363	0.0021
534.656	0.0022
534.95	0.0024
535.243	0.0016
535.536	0.0017
535.83	0.0026
536.123	0.0012
536.416	0.0014
536.709	0.0026
537.002	0.002
537.295	0.0023
537.588	0.0029
537.881	0.0015
538.173	0.0015
538.466	0.0023
538.759	0.0023
539.051	0.0026
539.344	0.0024
539.636	0.0007
539.928	0.004
540.22	0.0013
540.513	0.003
540.805	0.0031
541.097	0.0029
541.389	0.0023
541.681	0.0023
541.972	0.0009
542.264	0.0028
542.556	0.0023
542.847	0.0014
543.139	0.0025
543.431	0.0013
543.722	0.0014
544.013	0.0017
544.305	0.0014
544.596	0.0021
544.887	0.0029
545.178	0.003
545.469	0.0023
545.76	0.0021
546.051	0.0038
546.342	0.0023
546.632	0.0023
546.923	0.0027
547.214	0.0017
547.504	0.0032
547.795	0.0027
548.085	0.0022
548.375	0.0025
548.666	0.0032
548.956	0.0029
549.246	0.0041
549.536	0.0037
549.826	0.004
550.116	0.0036
550.406	0.0028
550.695	0.0032
550.985	0.0031
551.275	0.0037
551.564	0.0045
551.854	0.0038
552.143	0.0022
552.433	0.0034
552.722	0.0037
553.011	0.0039
553.3	0.0029
553.589	0.0041
553.879	0.0038
554.167	0.0035
554.456	0.0032
554.745	0.0041
555.034	0.0045
555.323	0.0031
555.611	0.0033
555.9	0.003
556.188	0.0022
556.477	0.0023
556.765	0.0037
557.053	0.0036
557.342	0.0028
557.63	0.0029
557.918	0.004
558.206	0.0039
558.494	0.004
558.782	0.0033
559.069	0.0054
559.357	0.0031
559.645	0.0033
559.932	0.0035
560.22	0.0033
560.507	0.0016
560.795	0.0019
561.082	0.002
561.37	0.0027
561.657	0.0026
561.944	0.0019
562.231	0.0024
562.518	0.0031
562.805	0.0034
563.092	0.0019
563.379	0.0028
563.665	0.003
563.952	0.0036
564.239	0.0033
564.525	0.0031
564.811	0.0025
565.098	0.0035
565.384	0.0029
565.67	0.0047
565.957	0.0044
566.243	0.0044
566.529	0.0035
566.815	0.0039
567.101	0.0038
567.387	0.0026
567.672	0.003
567.958	0.0017
568.244	0.0019
568.529	0.0026
568.815	0.0027
569.1	0.0025
569.386	0.0026
569.671	0.0027
569.956	0.0024
570.242	0.0018
570.527	0.0018
570.812	0.0022
571.097	0.0011
571.382	0.0002
571.666	0.001
571.951	0.0029
572.236	0.0019
572.521	0.0021
572.805	0.0035
573.09	0.002
573.374	0.0012
573.659	0.0015
573.943	0.0021
574.227	0.0021
574.511	0.0018
574.795	0.0021
575.079	0.0027
575.363	0.0019
575.647	0.0015
575.931	0.0027
576.215	0.0032
576.499	0.0009
576.782	0.0018
577.066	0.0025
577.349	0.0025
577.633	0.0034
577.916	0.002
578.2	0.0023
578.483	0.0021
578.766	0.0034
579.049	0.0019
579.332	0.0026
579.615	0.0018
579.898	0.0017
580.181	0.0026
580.464	0.0022
580.746	0.0023
581.029	0.0029
581.312	0.0013
581.594	0.0005
581.877	0.0015
582.159	0.0027
582.441	0.0021
582.724	0.0022
583.006	0.0024
583.288	0.0023
583.57	0.002
583.852	0.0033
584.134	0.0032
584.416	0.0017
584.697	0.002
584.979	0.0017
585.261	0.0016
585.542	0.0019
585.824	0.0025
586.105	0.0023
586.387	0.0025
586.668	0.0026
586.949	0.0034
587.231	0.0029
587.512	0.0023
587.793	0.0016
588.074	0.0023
588.355	0.0029
588.636	0.0024
588.916	0.0031
589.197	0.0009
589.478	0.0029
589.758	0.0023
590.039	0.0018
590.319	0.0012
590.6	0.0022
590.88	0.0018
591.16	0.0022
591.441	0.0032
591.721	0.0023
592.001	0.0017
592.281	0.0029
592.561	0.0026
592.841	0.0019
593.12	0.0015
593.4	0.0024
593.68	0.0018
593.959	0.0019
594.239	0.0026
594.518	0.0036
594.798	0.0028
595.077	0.0026
595.356	0.0023
595.636	0.0029
595.915	0.0017
