Data from 03 0.4 mM K2Cr2O7 0.25 M BQDS 1 M H2SO4 5 min_Absorbance_0102.txt Node
Date: Wed Dec 15 02:00:12 EST 2021
User: kwabilab-user
Spectrometer: HDX00518
Trigger mode: 0
Integration Time (sec): 5.000000E-2
Scans to average: 50
Nonlinearity correction enabled: false
Boxcar width: 0
Storing dark spectrum: false
XAxis mode: Wavelengths
Number of Pixels in Spectrum: 2068
>>>>>Begin Spectral Data<<<<<
195.27	-0.2675
195.642	-0.1571
196.014	-0.2374
196.386	-0.2283
196.758	-0.1782
197.129	-0.0452
197.501	-0.0593
197.872	-0.0319
198.244	-0.033
198.615	0.0076
198.986	-0.0118
199.357	-0.0161
199.728	0.0033
200.099	-0.0181
200.47	-0.019
200.841	-0.0238
201.212	-0.0236
201.582	-0.0157
201.953	0.0061
202.323	-0.0205
202.694	-0.0253
203.064	-0.0252
203.434	-0.0327
203.804	-0.0352
204.174	-0.0239
204.544	0.0013
204.914	-0.0283
205.284	-0.0359
205.653	-0.0411
206.023	-0.0265
206.393	-0.0273
206.762	-0.0297
207.131	-0.0185
207.501	-0.0137
207.87	-0.026
208.239	-0.0148
208.608	-0.0375
208.977	-0.0376
209.346	-0.0326
209.715	-0.0366
210.083	-0.0276
210.452	-0.0423
210.82	-0.0279
211.189	-0.0634
211.557	-0.0212
211.925	-0.0335
212.294	-0.0304
212.662	-0.0132
213.03	-0.0298
213.398	-0.0265
213.766	-0.0402
214.133	-0.0272
214.501	-0.0364
214.869	-0.0322
215.236	-0.0463
215.604	-0.0126
215.971	-0.001
216.338	-0.0117
216.705	-0.0186
217.072	-0.0062
217.439	-0.0233
217.806	-0.0098
218.173	0.0009
218.54	-0.0082
218.907	0.0221
219.273	0.0064
219.64	0.0299
220.006	0.0287
220.373	0.0312
220.739	0.05
221.105	0.0877
221.471	0.0776
221.837	0.1147
222.203	0.1308
222.569	0.1182
222.935	0.1401
223.3	0.1809
223.666	0.1964
224.031	0.2131
224.397	0.2398
224.762	0.2671
225.127	0.2744
225.493	0.3172
225.858	0.3407
226.223	0.3598
226.588	0.3942
226.952	0.3967
227.317	0.425
227.682	0.4432
228.046	0.4502
228.411	0.4682
228.775	0.4973
229.14	0.4961
229.504	0.5008
229.868	0.5126
230.232	0.5328
230.596	0.5652
230.96	0.5563
231.324	0.5485
231.688	0.5675
232.052	0.5731
232.415	0.5728
232.779	0.5909
233.142	0.6044
233.505	0.5912
233.869	0.6024
234.232	0.5972
234.595	0.6018
234.958	0.601
235.321	0.5956
235.684	0.592
236.047	0.5903
236.409	0.5929
236.772	0.5997
237.134	0.5923
237.497	0.5923
237.859	0.6018
238.222	0.595
238.584	0.5896
238.946	0.581
239.308	0.5864
239.67	0.5792
240.032	0.5792
240.393	0.5803
240.755	0.5664
241.117	0.5651
241.478	0.5719
241.84	0.5675
242.201	0.5597
242.562	0.5645
242.924	0.5538
243.285	0.5557
243.646	0.548
244.007	0.5442
244.368	0.5514
244.728	0.5451
245.089	0.545
245.45	0.5451
245.81	0.5336
246.171	0.5344
246.531	0.5401
246.891	0.539
247.252	0.5277
247.612	0.5411
247.972	0.5353
248.332	0.5333
248.692	0.5292
249.051	0.5294
249.411	0.5305
249.771	0.524
250.13	0.5302
250.49	0.5225
250.849	0.5213
251.208	0.5265
251.568	0.5251
251.927	0.5198
252.286	0.5258
252.645	0.5263
253.004	0.5258
253.363	0.5219
253.721	0.5212
254.08	0.5222
254.439	0.518
254.797	0.5162
255.155	0.516
255.514	0.5225
255.872	0.5133
256.23	0.5152
256.588	0.5188
256.946	0.5149
257.304	0.5154
257.662	0.5133
258.02	0.5123
258.377	0.5163
258.735	0.5154
259.093	0.5106
259.45	0.5114
259.807	0.5101
260.165	0.5152
260.522	0.5075
260.879	0.5116
261.236	0.5115
261.593	0.5043
261.95	0.5094
262.306	0.503
262.663	0.5005
263.02	0.5006
263.376	0.4976
263.733	0.4948
264.089	0.496
264.445	0.4936
264.802	0.4895
265.158	0.4895
265.514	0.4871
265.87	0.4861
266.226	0.4874
266.581	0.487
266.937	0.4844
267.293	0.4818
267.648	0.4802
268.004	0.4777
268.359	0.476
268.714	0.4708
269.07	0.47
269.425	0.4673
269.78	0.4614
270.135	0.464
270.49	0.4621
270.844	0.4591
271.199	0.4562
271.554	0.4492
271.908	0.4501
272.263	0.4487
272.617	0.4454
272.972	0.4411
273.326	0.4428
273.68	0.4358
274.034	0.4346
274.388	0.4345
274.742	0.4302
275.096	0.4273
275.45	0.4244
275.803	0.419
276.157	0.4175
276.51	0.4115
276.864	0.41
277.217	0.4069
277.571	0.4045
277.924	0.3961
278.277	0.3967
278.63	0.3913
278.983	0.3917
279.336	0.3862
279.688	0.3802
280.041	0.3772
280.394	0.3732
280.746	0.3693
281.099	0.3688
281.451	0.3631
281.803	0.3616
282.156	0.3594
282.508	0.3538
282.86	0.3511
283.212	0.3469
283.564	0.3391
283.916	0.3377
284.267	0.3326
284.619	0.3332
284.971	0.3286
285.322	0.3259
285.673	0.3211
286.025	0.317
286.376	0.3166
286.727	0.3128
287.078	0.3073
287.429	0.3062
287.78	0.2993
288.131	0.2977
288.482	0.2936
288.833	0.2917
289.183	0.2862
289.534	0.2833
289.884	0.2805
290.235	0.2777
290.585	0.2733
290.935	0.2713
291.285	0.268
291.635	0.265
291.985	0.2604
292.335	0.2581
292.685	0.2534
293.035	0.2497
293.384	0.2483
293.734	0.2443
294.083	0.241
294.433	0.2375
294.782	0.235
295.131	0.2315
295.48	0.228
295.829	0.2259
296.179	0.2233
296.527	0.2191
296.876	0.2165
297.225	0.2121
297.574	0.2101
297.922	0.2079
298.271	0.2042
298.619	0.2012
298.968	0.1996
299.316	0.1968
299.664	0.1942
300.012	0.192
300.36	0.1877
300.708	0.186
301.056	0.1843
301.404	0.1813
301.752	0.1788
302.099	0.176
302.447	0.1749
302.794	0.1713
303.142	0.1695
303.489	0.1675
303.836	0.1655
304.183	0.1635
304.531	0.1622
304.878	0.1596
305.224	0.1581
305.571	0.1564
305.918	0.1551
306.265	0.1526
306.611	0.1518
306.958	0.1511
307.304	0.1491
307.651	0.1476
307.997	0.1461
308.343	0.1448
308.689	0.1443
309.035	0.1429
309.381	0.1411
309.727	0.1409
310.073	0.1404
310.419	0.139
310.764	0.14
311.11	0.1377
311.455	0.1369
311.801	0.1369
312.146	0.1356
312.491	0.1359
312.837	0.1353
313.182	0.1341
313.527	0.1335
313.872	0.1338
314.216	0.1337
314.561	0.1329
314.906	0.1327
315.251	0.1339
315.595	0.1335
315.94	0.1328
316.284	0.133
316.628	0.133
316.972	0.1339
317.317	0.1335
317.661	0.1342
318.005	0.1333
318.348	0.1343
318.692	0.1347
319.036	0.1346
319.38	0.1358
319.723	0.1355
320.067	0.1362
320.41	0.1372
320.754	0.1371
321.097	0.1377
321.44	0.1383
321.783	0.1398
322.126	0.1408
322.469	0.1404
322.812	0.1419
323.155	0.1423
323.498	0.1433
323.84	0.1438
324.183	0.1447
324.525	0.1453
324.868	0.1479
325.21	0.1474
325.552	0.1489
325.894	0.1495
326.236	0.1499
326.578	0.1506
326.92	0.1523
327.262	0.1532
327.604	0.1535
327.946	0.1549
328.287	0.1563
328.629	0.1568
328.97	0.1579
329.312	0.1589
329.653	0.1605
329.994	0.161
330.335	0.1631
330.676	0.164
331.017	0.1645
331.358	0.1664
331.699	0.1677
332.04	0.1683
332.38	0.1697
332.721	0.1707
333.061	0.1718
333.402	0.1736
333.742	0.1745
334.083	0.175
334.423	0.176
334.763	0.1772
335.103	0.1783
335.443	0.1797
335.783	0.1802
336.123	0.1811
336.462	0.1815
336.802	0.1828
337.141	0.1833
337.481	0.1846
337.82	0.1861
338.16	0.1862
338.499	0.1876
338.838	0.1888
339.177	0.1892
339.516	0.1898
339.855	0.1911
340.194	0.1915
340.533	0.1919
340.872	0.1927
341.21	0.1932
341.549	0.195
341.887	0.1945
342.226	0.1946
342.564	0.1958
342.902	0.1964
343.24	0.1964
343.578	0.1971
343.916	0.1969
344.254	0.1975
344.592	0.1988
344.93	0.1981
345.268	0.1978
345.605	0.1988
345.943	0.1983
346.28	0.1992
346.618	0.1986
346.955	0.1992
347.292	0.1989
347.629	0.1993
347.966	0.1992
348.303	0.1993
348.64	0.1994
348.977	0.1988
349.314	0.1992
349.65	0.1995
349.987	0.1998
350.324	0.1983
350.66	0.1989
350.996	0.1991
351.333	0.1984
351.669	0.1975
352.005	0.198
352.341	0.1973
352.677	0.1962
353.013	0.1946
353.349	0.1948
353.685	0.194
354.02	0.1927
354.356	0.1931
354.691	0.1913
355.027	0.1909
355.362	0.1897
355.697	0.1889
356.033	0.189
356.368	0.188
356.703	0.1875
357.038	0.1862
357.373	0.1854
357.707	0.184
358.042	0.1839
358.377	0.1828
358.711	0.1825
359.046	0.1814
359.38	0.1808
359.715	0.18
360.049	0.1784
360.383	0.1766
360.717	0.1761
361.051	0.1749
361.385	0.1752
361.719	0.1729
362.053	0.1726
362.387	0.1707
362.72	0.1696
363.054	0.1684
363.387	0.1663
363.721	0.1656
364.054	0.1639
364.387	0.1623
364.721	0.161
365.054	0.1602
365.387	0.1587
365.72	0.1574
366.053	0.1562
366.385	0.1546
366.718	0.1543
367.051	0.1525
367.383	0.1513
367.716	0.151
368.048	0.1503
368.381	0.1492
368.713	0.1478
369.045	0.1466
369.377	0.1453
369.709	0.1443
370.041	0.1429
370.373	0.1423
370.705	0.1405
371.037	0.1396
371.368	0.1385
371.7	0.1365
372.031	0.1349
372.363	0.1344
372.694	0.1333
373.025	0.1313
373.356	0.1303
373.688	0.1284
374.019	0.1273
374.35	0.1252
374.68	0.1239
375.011	0.1219
375.342	0.1211
375.673	0.1201
376.003	0.1175
376.334	0.1166
376.664	0.1154
376.995	0.1137
377.325	0.1127
377.655	0.111
377.985	0.1095
378.315	0.1095
378.645	0.1078
378.975	0.1073
379.305	0.1056
379.635	0.1048
379.964	0.1033
380.294	0.1037
380.623	0.1014
380.953	0.1005
381.282	0.1
381.611	0.0999
381.941	0.098
382.27	0.0965
382.599	0.0962
382.928	0.0947
383.257	0.0933
383.585	0.0923
383.914	0.0905
384.243	0.0892
384.571	0.0884
384.9	0.0869
385.228	0.086
385.557	0.0849
385.885	0.083
386.213	0.0822
386.541	0.0809
386.869	0.0797
387.197	0.0782
387.525	0.0772
387.853	0.076
388.181	0.0746
388.508	0.0739
388.836	0.0728
389.164	0.0727
389.491	0.0708
389.818	0.0693
390.146	0.0691
390.473	0.0682
390.8	0.0676
391.127	0.0653
391.454	0.0648
391.781	0.0645
392.108	0.0638
392.435	0.0627
392.761	0.0616
393.088	0.062
393.415	0.061
393.741	0.0604
394.067	0.0601
394.394	0.0595
394.72	0.0588
395.046	0.0572
395.372	0.0564
395.698	0.0561
396.024	0.0548
396.35	0.0543
396.676	0.0537
397.001	0.0531
397.327	0.052
397.653	0.0515
397.978	0.051
398.303	0.0499
398.629	0.0495
398.954	0.0491
399.279	0.0487
399.604	0.0479
399.929	0.0478
400.254	0.0464
400.579	0.0463
400.904	0.0454
401.229	0.0455
401.553	0.0451
401.878	0.0444
402.202	0.0442
402.527	0.0432
402.851	0.0433
403.175	0.0418
403.5	0.0421
403.824	0.0418
404.148	0.0416
404.472	0.0412
404.796	0.0415
405.119	0.0406
405.443	0.0402
405.767	0.0404
406.09	0.0404
406.414	0.0397
406.737	0.0397
407.061	0.0398
407.384	0.0392
407.707	0.0392
408.03	0.0386
408.353	0.0384
408.676	0.0383
408.999	0.0388
409.322	0.0379
409.645	0.0383
409.968	0.0379
410.29	0.0377
410.613	0.0379
410.935	0.0374
411.258	0.0376
411.58	0.037
411.902	0.0374
412.224	0.037
412.546	0.0375
412.868	0.0381
413.19	0.0375
413.512	0.0368
413.834	0.0373
414.156	0.0377
414.477	0.0363
414.799	0.0369
415.121	0.0366
415.442	0.0362
415.763	0.0359
416.085	0.0373
416.406	0.0364
416.727	0.0365
417.048	0.0373
417.369	0.037
417.69	0.0364
418.011	0.0366
418.331	0.0369
418.652	0.0361
418.973	0.0356
419.293	0.0357
419.614	0.0354
419.934	0.0367
420.254	0.0357
420.574	0.0351
420.895	0.0359
421.215	0.0362
421.535	0.0363
421.855	0.0355
422.174	0.0351
422.494	0.0351
422.814	0.0355
423.134	0.0356
423.453	0.0359
423.773	0.0362
424.092	0.0365
424.411	0.0358
424.731	0.0359
425.05	0.0361
425.369	0.0357
425.688	0.036
426.007	0.0357
426.326	0.0366
426.644	0.036
426.963	0.0359
427.282	0.0361
427.6	0.0361
427.919	0.0356
428.237	0.036
428.556	0.0364
428.874	0.0362
429.192	0.0361
429.51	0.0356
429.828	0.0366
430.146	0.0361
430.464	0.0354
430.782	0.0359
431.1	0.0352
431.418	0.0355
431.735	0.0351
432.053	0.0356
432.37	0.036
432.688	0.035
433.005	0.035
433.322	0.0371
433.639	0.0353
433.957	0.0353
434.274	0.0359
434.591	0.0361
434.907	0.0355
435.224	0.0358
435.541	0.0357
435.858	0.0366
436.174	0.0363
436.491	0.036
436.807	0.0357
437.124	0.035
437.44	0.0355
437.756	0.0358
438.072	0.0347
438.388	0.0359
438.704	0.0355
439.02	0.035
439.336	0.0346
439.652	0.0351
439.968	0.0349
440.283	0.0351
440.599	0.0347
440.914	0.0348
441.23	0.0345
441.545	0.0352
441.86	0.0352
442.175	0.0351
442.491	0.0347
442.806	0.0351
443.121	0.0343
443.435	0.0343
443.75	0.0339
444.065	0.0346
444.38	0.0343
444.694	0.0337
445.009	0.0342
445.323	0.0345
445.638	0.0342
445.952	0.0341
446.266	0.0335
446.58	0.0329
446.894	0.0339
447.208	0.034
447.522	0.0331
447.836	0.0335
448.15	0.0331
448.464	0.033
448.777	0.033
449.091	0.0328
449.404	0.0325
449.718	0.033
450.031	0.0319
450.345	0.0327
450.658	0.0317
450.971	0.0326
451.284	0.0325
451.597	0.0328
451.91	0.0322
452.223	0.0325
452.535	0.0318
452.848	0.0316
453.161	0.0316
453.473	0.032
453.786	0.0319
454.098	0.0317
454.411	0.0313
454.723	0.0314
455.035	0.0308
455.347	0.0308
455.659	0.0313
455.971	0.032
456.283	0.0313
456.595	0.0318
456.907	0.0311
457.218	0.0314
457.53	0.0304
457.841	0.0298
458.153	0.0304
458.464	0.0302
458.776	0.0298
459.087	0.0301
459.398	0.0294
459.709	0.0289
460.02	0.03
460.331	0.0294
460.642	0.0297
460.953	0.029
461.263	0.0295
461.574	0.0285
461.885	0.0295
462.195	0.0279
462.506	0.0287
462.816	0.0296
463.126	0.0279
463.437	0.0284
463.747	0.0273
464.057	0.027
464.367	0.0268
464.677	0.0272
464.987	0.0268
465.296	0.0267
465.606	0.0261
465.916	0.026
466.225	0.0265
466.535	0.0267
466.844	0.0264
467.154	0.0269
467.463	0.0258
467.772	0.0257
468.081	0.0258
468.39	0.0263
468.699	0.0261
469.008	0.0255
469.317	0.0255
469.626	0.0258
469.935	0.0244
470.243	0.0248
470.552	0.0241
470.86	0.025
471.169	0.0239
471.477	0.0235
471.785	0.0235
472.093	0.0232
472.402	0.0238
472.71	0.0228
473.018	0.0232
473.326	0.0233
473.633	0.0226
473.941	0.0222
474.249	0.0228
474.556	0.0221
474.864	0.0223
475.171	0.0226
475.479	0.0218
475.786	0.0222
476.094	0.0221
476.401	0.022
476.708	0.0215
477.015	0.0214
477.322	0.0205
477.629	0.0204
477.936	0.0204
478.242	0.02
478.549	0.0212
478.856	0.0202
479.162	0.0202
479.469	0.0197
479.775	0.019
480.081	0.0192
480.388	0.0188
480.694	0.0193
481	0.019
481.306	0.0189
481.612	0.0189
481.918	0.0199
482.224	0.0183
482.53	0.019
482.835	0.0185
483.141	0.0187
483.446	0.018
483.752	0.0177
484.057	0.0172
484.363	0.0175
484.668	0.018
484.973	0.0167
485.278	0.0166
485.583	0.0153
485.888	0.0168
486.193	0.016
486.498	0.0164
486.803	0.0166
487.107	0.0163
487.412	0.0147
487.717	0.0152
488.021	0.0161
488.325	0.0153
488.63	0.0149
488.934	0.0158
489.238	0.0142
489.542	0.0147
489.846	0.0146
490.15	0.015
490.454	0.0155
490.758	0.0136
491.062	0.0128
491.366	0.0139
491.669	0.0136
491.973	0.014
492.276	0.0134
492.58	0.0129
492.883	0.0135
493.186	0.0132
493.489	0.014
493.792	0.012
494.096	0.0124
494.399	0.0126
494.701	0.0129
495.004	0.0111
495.307	0.0117
495.61	0.012
495.912	0.0128
496.215	0.0118
496.517	0.0131
496.82	0.0112
497.122	0.0114
497.424	0.0116
497.727	0.0114
498.029	0.0108
498.331	0.0108
498.633	0.0103
498.935	0.0104
499.237	0.0108
499.538	0.0102
499.84	0.0107
500.142	0.0099
500.443	0.0105
500.745	0.0099
501.046	0.0096
501.348	0.009
501.649	0.0092
501.95	0.0092
502.251	0.01
502.552	0.0083
502.853	0.0094
503.154	0.01
503.455	0.0085
503.756	0.0103
504.057	0.0082
504.357	0.0082
504.658	0.0085
504.958	0.008
505.259	0.009
505.559	0.0083
505.859	0.0086
506.16	0.0071
506.46	0.0085
506.76	0.0083
507.06	0.0065
507.36	0.0069
507.66	0.0079
507.96	0.0091
508.259	0.0069
508.559	0.0073
508.859	0.007
509.158	0.0071
509.457	0.0063
509.757	0.0065
510.056	0.0058
510.355	0.0068
510.655	0.0061
510.954	0.0057
511.253	0.007
511.552	0.0071
511.851	0.0066
512.149	0.0058
512.448	0.0058
512.747	0.0066
513.045	0.0051
513.344	0.0068
513.642	0.0058
513.941	0.006
514.239	0.0064
514.537	0.0056
514.836	0.0056
515.134	0.0053
515.432	0.005
515.73	0.0048
516.028	0.0057
516.326	0.0039
516.623	0.005
516.921	0.0041
517.219	0.0053
517.516	0.005
517.814	0.0053
518.111	0.0049
518.409	0.0053
518.706	0.0048
519.003	0.0036
519.3	0.0043
519.597	0.0054
519.894	0.0048
520.191	0.0057
520.488	0.0054
520.785	0.0043
521.082	0.0048
521.378	0.0054
521.675	0.004
521.971	0.0044
522.268	0.0042
522.564	0.0043
522.861	0.005
523.157	0.0041
523.453	0.0053
523.749	0.004
524.045	0.0039
524.341	0.0042
524.637	0.0036
524.933	0.0043
525.229	0.0045
525.524	0.003
525.82	0.0041
526.115	0.0037
526.411	0.0033
526.706	0.0033
527.002	0.0035
527.297	0.0027
527.592	0.0032
527.887	0.0023
528.182	0.0026
528.477	0.0043
528.772	0.003
529.067	0.0038
529.362	0.0042
529.657	0.0033
529.951	0.0036
530.246	0.0031
530.54	0.0039
530.835	0.0032
531.129	0.0035
531.423	0.0029
531.718	0.0034
532.012	0.0031
532.306	0.0029
532.6	0.0022
532.894	0.0029
533.188	0.0029
533.482	0.0032
533.775	0.0027
534.069	0.0034
534.363	0.0029
534.656	0.0026
534.95	0.0025
535.243	0.002
535.536	0.0026
535.83	0.0025
536.123	0.002
536.416	0.0024
536.709	0.0032
537.002	0.0029
537.295	0.0034
537.588	0.0028
537.881	0.003
538.173	0.0028
538.466	0.0032
538.759	0.004
539.051	0.004
539.344	0.0027
539.636	0.0028
539.928	0.0046
540.22	0.0024
540.513	0.0032
540.805	0.003
541.097	0.0035
541.389	0.003
541.681	0.004
541.972	0.0023
542.264	0.0033
542.556	0.0038
542.847	0.0028
543.139	0.0026
543.431	0.0025
543.722	0.0023
544.013	0.0029
544.305	0.0029
544.596	0.003
544.887	0.0033
545.178	0.0042
545.469	0.0035
545.76	0.0039
546.051	0.0042
546.342	0.0033
546.632	0.0036
546.923	0.0023
547.214	0.0027
547.504	0.0032
547.795	0.0031
548.085	0.0033
548.375	0.0032
548.666	0.0037
548.956	0.0021
549.246	0.0046
549.536	0.0033
549.826	0.0046
550.116	0.0035
550.406	0.0043
550.695	0.0039
550.985	0.0038
551.275	0.0036
551.564	0.0044
551.854	0.0036
552.143	0.0041
552.433	0.0037
552.722	0.0033
553.011	0.0039
553.3	0.0032
553.589	0.004
553.879	0.0038
554.167	0.0037
554.456	0.0035
554.745	0.0034
555.034	0.0041
555.323	0.0029
555.611	0.0041
555.9	0.0029
556.188	0.0038
556.477	0.0033
556.765	0.0035
557.053	0.0025
557.342	0.0029
557.63	0.0034
557.918	0.0034
558.206	0.0037
558.494	0.0043
558.782	0.0028
559.069	0.0037
559.357	0.0045
559.645	0.004
559.932	0.0026
560.22	0.0036
560.507	0.0017
560.795	0.0034
561.082	0.0025
561.37	0.0037
561.657	0.0023
561.944	0.0034
562.231	0.0029
562.518	0.0027
562.805	0.0038
563.092	0.0021
563.379	0.0034
563.665	0.0035
563.952	0.0047
564.239	0.0047
564.525	0.0031
564.811	0.0036
565.098	0.002
565.384	0.0036
565.67	0.0028
565.957	0.0035
566.243	0.003
566.529	0.0027
566.815	0.0033
567.101	0.0027
567.387	0.0034
567.672	0.0021
567.958	0.0024
568.244	0.0015
568.529	0.0028
568.815	0.0021
569.1	0.0027
569.386	0.0047
569.671	0.003
569.956	0.003
570.242	0.0031
570.527	0.0019
570.812	0.0025
571.097	0.0026
571.382	0.0018
571.666	0.002
571.951	0.0035
572.236	0.0027
572.521	0.0031
572.805	0.0039
573.09	0.0026
573.374	0.0022
573.659	0.0029
573.943	0.0028
574.227	0.0029
574.511	0.0029
574.795	0.0032
575.079	0.0031
575.363	0.0027
575.647	0.0025
575.931	0.0027
576.215	0.0035
576.499	0.0023
576.782	0.0019
577.066	0.0023
577.349	0.0031
577.633	0.0036
577.916	0.0026
578.2	0.0032
578.483	0.0033
578.766	0.0039
579.049	0.0028
579.332	0.0034
579.615	0.0031
579.898	0.0022
580.181	0.0026
580.464	0.0029
580.746	0.0031
581.029	0.0033
581.312	0.0026
581.594	0.002
581.877	0.0027
582.159	0.0044
582.441	0.0018
582.724	0.0038
583.006	0.0029
583.288	0.0033
583.57	0.0036
583.852	0.0028
584.134	0.0038
584.416	0.0026
584.697	0.0027
584.979	0.0024
585.261	0.0025
585.542	0.0033
585.824	0.0033
586.105	0.0038
586.387	0.0038
586.668	0.0033
586.949	0.004
587.231	0.0034
587.512	0.0029
587.793	0.0023
588.074	0.003
588.355	0.0031
588.636	0.0026
588.916	0.0031
589.197	0.0019
589.478	0.0033
589.758	0.0031
590.039	0.0024
590.319	0.0015
590.6	0.002
590.88	0.0023
591.16	0.0027
591.441	0.0034
591.721	0.0021
592.001	0.0022
592.281	0.0025
592.561	0.0028
592.841	0.0023
593.12	0.0019
593.4	0.003
593.68	0.003
593.959	0.0021
594.239	0.0027
594.518	0.0036
594.798	0.0034
595.077	0.003
595.356	0.0031
595.636	0.0023
595.915	0.0021
