Data from 03 0.4 mM K2Cr2O7 0.25 M BQDS 1 M H2SO4 5 min_Absorbance_0173.txt Node
Date: Wed Dec 15 07:55:13 EST 2021
User: kwabilab-user
Spectrometer: HDX00518
Trigger mode: 0
Integration Time (sec): 5.000000E-2
Scans to average: 50
Nonlinearity correction enabled: false
Boxcar width: 0
Storing dark spectrum: false
XAxis mode: Wavelengths
Number of Pixels in Spectrum: 2068
>>>>>Begin Spectral Data<<<<<
195.27	-0.1035
195.642	0.1439
196.014	-0.0569
196.386	0.285
196.758	-0.0905
197.129	-0.0086
197.501	-0.0299
197.872	0.0142
198.244	0.0098
198.615	0.0327
198.986	0.0226
199.357	0.0259
199.728	0.0324
200.099	0.0065
200.47	0.0277
200.841	0.026
201.212	0.0195
201.582	0.0366
201.953	0.0299
202.323	0.028
202.694	0.016
203.064	0.0231
203.434	0.0111
203.804	0.0196
204.174	0.0273
204.544	0.0323
204.914	0.0032
205.284	0.0215
205.653	-0.011
206.023	0.0283
206.393	0.0236
206.762	0.0197
207.131	0.0261
207.501	0.04
207.87	0.0136
208.239	0.0205
208.608	0.0243
208.977	0.0022
209.346	0.0053
209.715	0.0029
210.083	0.0196
210.452	0.0024
210.82	0.0242
211.189	0.0039
211.557	0.0421
211.925	0.0059
212.294	0.0253
212.662	0.0127
213.03	0.0146
213.398	0.0208
213.766	0.0256
214.133	0.0183
214.501	0.015
214.869	0.0199
215.236	0.0188
215.604	0.0231
215.971	0.0419
216.338	0.0313
216.705	0.0337
217.072	0.0259
217.439	0.0489
217.806	0.0526
218.173	0.0641
218.54	0.0428
218.907	0.0555
219.273	0.068
219.64	0.0757
220.006	0.0862
220.373	0.0828
220.739	0.0925
221.105	0.1097
221.471	0.1303
221.837	0.1531
222.203	0.1721
222.569	0.1849
222.935	0.1709
223.3	0.2238
223.666	0.2568
224.031	0.2738
224.397	0.2824
224.762	0.3083
225.127	0.3341
225.493	0.3455
225.858	0.3796
226.223	0.4105
226.588	0.417
226.952	0.4386
227.317	0.4671
227.682	0.483
228.046	0.4694
228.411	0.5029
228.775	0.5255
229.14	0.5322
229.504	0.5401
229.868	0.5471
230.232	0.5529
230.596	0.5755
230.96	0.5865
231.324	0.5724
231.688	0.5801
232.052	0.5875
232.415	0.5946
232.779	0.615
233.142	0.6178
233.505	0.6099
233.869	0.6164
234.232	0.6089
234.595	0.6026
234.958	0.6028
235.321	0.6158
235.684	0.5995
236.047	0.6064
236.409	0.5928
236.772	0.5982
237.134	0.5942
237.497	0.5851
237.859	0.5978
238.222	0.5957
238.584	0.583
238.946	0.5836
239.308	0.5813
239.67	0.5828
240.032	0.5775
240.393	0.5717
240.755	0.576
241.117	0.5664
241.478	0.5663
241.84	0.5657
242.201	0.5553
242.562	0.5472
242.924	0.5524
243.285	0.5411
243.646	0.5395
244.007	0.5359
244.368	0.5441
244.728	0.5366
245.089	0.5312
245.45	0.5307
245.81	0.5257
246.171	0.5281
246.531	0.523
246.891	0.5188
247.252	0.5212
247.612	0.5199
247.972	0.5182
248.332	0.5162
248.692	0.5138
249.051	0.5132
249.411	0.5063
249.771	0.5092
250.13	0.5076
250.49	0.5011
250.849	0.5052
251.208	0.5075
251.568	0.505
251.927	0.4984
252.286	0.4975
252.645	0.4982
253.004	0.5026
253.363	0.4934
253.721	0.4963
254.08	0.4985
254.439	0.4914
254.797	0.4888
255.155	0.4915
255.514	0.4904
255.872	0.4926
256.23	0.4903
256.588	0.4903
256.946	0.4972
257.304	0.489
257.662	0.4945
258.02	0.4891
258.377	0.4873
258.735	0.4858
259.093	0.4794
259.45	0.4842
259.807	0.4811
260.165	0.4814
260.522	0.4815
260.879	0.4749
261.236	0.4821
261.593	0.4747
261.95	0.4746
262.306	0.4761
262.663	0.4729
263.02	0.4711
263.376	0.4678
263.733	0.4626
264.089	0.4637
264.445	0.4622
264.802	0.462
265.158	0.4567
265.514	0.4599
265.87	0.4557
266.226	0.4565
266.581	0.4569
266.937	0.4568
267.293	0.4502
267.648	0.4493
268.004	0.4459
268.359	0.4452
268.714	0.4382
269.07	0.4411
269.425	0.4315
269.78	0.4384
270.135	0.435
270.49	0.4312
270.844	0.4323
271.199	0.4261
271.554	0.4222
271.908	0.4199
272.263	0.4219
272.617	0.4143
272.972	0.4139
273.326	0.4121
273.68	0.4046
274.034	0.4092
274.388	0.4048
274.742	0.403
275.096	0.3967
275.45	0.3954
275.803	0.3911
276.157	0.3891
276.51	0.384
276.864	0.3809
277.217	0.3838
277.571	0.3801
277.924	0.3757
278.277	0.3716
278.63	0.3682
278.983	0.364
279.336	0.3631
279.688	0.358
280.041	0.3549
280.394	0.3476
280.746	0.347
281.099	0.3419
281.451	0.3397
281.803	0.3366
282.156	0.3325
282.508	0.3302
282.86	0.3276
283.212	0.3223
283.564	0.3169
283.916	0.314
284.267	0.3138
284.619	0.3103
284.971	0.3062
285.322	0.303
285.673	0.2996
286.025	0.297
286.376	0.2948
286.727	0.2899
287.078	0.285
287.429	0.2844
287.78	0.2794
288.131	0.2774
288.482	0.272
288.833	0.2698
289.183	0.2667
289.534	0.2622
289.884	0.2617
290.235	0.2569
290.585	0.2554
290.935	0.2502
291.285	0.248
291.635	0.2439
291.985	0.2415
292.335	0.239
292.685	0.2358
293.035	0.2318
293.384	0.2283
293.734	0.2244
294.083	0.2232
294.433	0.2204
294.782	0.2165
295.131	0.2127
295.48	0.2106
295.829	0.2072
296.179	0.2053
296.527	0.2015
296.876	0.1994
297.225	0.1959
297.574	0.1931
297.922	0.1911
298.271	0.1867
298.619	0.1842
298.968	0.1833
299.316	0.1804
299.664	0.1789
300.012	0.1751
300.36	0.1716
300.708	0.1707
301.056	0.1677
301.404	0.1662
301.752	0.1637
302.099	0.1603
302.447	0.1591
302.794	0.1567
303.142	0.1542
303.489	0.1526
303.836	0.1499
304.183	0.1494
304.531	0.1472
304.878	0.1449
305.224	0.1432
305.571	0.142
305.918	0.1401
306.265	0.1382
306.611	0.1362
306.958	0.1363
307.304	0.1357
307.651	0.1338
307.997	0.1323
308.343	0.1308
308.689	0.1301
309.035	0.1294
309.381	0.1274
309.727	0.1269
310.073	0.1258
310.419	0.1257
310.764	0.1257
311.11	0.1239
311.455	0.1237
311.801	0.1238
312.146	0.1225
312.491	0.1219
312.837	0.1219
313.182	0.1211
313.527	0.12
313.872	0.1212
314.216	0.1206
314.561	0.1197
314.906	0.1202
315.251	0.1197
315.595	0.1208
315.94	0.12
316.284	0.1202
316.628	0.1202
316.972	0.1197
317.317	0.1201
317.661	0.1214
318.005	0.1211
318.348	0.1209
318.692	0.1217
319.036	0.1216
319.38	0.1224
319.723	0.1225
320.067	0.1233
320.41	0.1239
320.754	0.1242
321.097	0.1235
321.44	0.1247
321.783	0.126
322.126	0.1266
322.469	0.127
322.812	0.1274
323.155	0.1285
323.498	0.1294
323.84	0.1299
324.183	0.1308
324.525	0.1317
324.868	0.1339
325.21	0.134
325.552	0.1341
325.894	0.1355
326.236	0.1357
326.578	0.137
326.92	0.1379
327.262	0.1385
327.604	0.1396
327.946	0.1408
328.287	0.1416
328.629	0.1431
328.97	0.1437
329.312	0.1444
329.653	0.1455
329.994	0.1471
330.335	0.1473
330.676	0.1486
331.017	0.1501
331.358	0.1508
331.699	0.1525
332.04	0.1535
332.38	0.1547
332.721	0.156
333.061	0.1559
333.402	0.1575
333.742	0.1589
334.083	0.1589
334.423	0.1604
334.763	0.1617
335.103	0.162
335.443	0.1635
335.783	0.1642
336.123	0.1649
336.462	0.1661
336.802	0.1667
337.141	0.1671
337.481	0.1688
337.82	0.1697
338.16	0.17
338.499	0.171
338.838	0.1711
339.177	0.173
339.516	0.1737
339.855	0.1735
340.194	0.1747
340.533	0.1748
340.872	0.1759
341.21	0.1771
341.549	0.1775
341.887	0.178
342.226	0.178
342.564	0.1791
342.902	0.1796
343.24	0.1795
343.578	0.1811
343.916	0.18
344.254	0.1808
344.592	0.1808
344.93	0.1813
345.268	0.1804
345.605	0.1816
345.943	0.1814
346.28	0.1818
346.618	0.1818
346.955	0.1815
347.292	0.1827
347.629	0.1823
347.966	0.1824
348.303	0.1834
348.64	0.1826
348.977	0.1827
349.314	0.183
349.65	0.1825
349.987	0.1832
350.324	0.1822
350.66	0.1825
350.996	0.1822
351.333	0.1816
351.669	0.1813
352.005	0.1811
352.341	0.1801
352.677	0.1801
353.013	0.179
353.349	0.1786
353.685	0.1779
354.02	0.1769
354.356	0.1765
354.691	0.1743
355.027	0.1752
355.362	0.1737
355.697	0.1734
356.033	0.1732
356.368	0.172
356.703	0.1711
357.038	0.1707
357.373	0.1697
357.707	0.17
358.042	0.1685
358.377	0.1684
358.711	0.1673
359.046	0.1659
359.38	0.1661
359.715	0.1658
360.049	0.164
360.383	0.163
360.717	0.1617
361.051	0.1609
361.385	0.1598
361.719	0.1589
362.053	0.1588
362.387	0.1561
362.72	0.1556
363.054	0.1542
363.387	0.1531
363.721	0.1519
364.054	0.1505
364.387	0.1491
364.721	0.1481
365.054	0.147
365.387	0.1457
365.72	0.145
366.053	0.1431
366.385	0.1416
366.718	0.141
367.051	0.1395
367.383	0.1382
367.716	0.1381
368.048	0.1373
368.381	0.1368
368.713	0.1343
369.045	0.1342
369.377	0.1333
369.709	0.1322
370.041	0.1309
370.373	0.13
370.705	0.1291
371.037	0.1276
371.368	0.1264
371.7	0.1246
372.031	0.1241
372.363	0.1226
372.694	0.1217
373.025	0.1196
373.356	0.1192
373.688	0.1178
374.019	0.116
374.35	0.1141
374.68	0.1129
375.011	0.1118
375.342	0.1104
375.673	0.1088
376.003	0.1077
376.334	0.1069
376.664	0.1053
376.995	0.1039
377.325	0.1028
377.655	0.1008
377.985	0.0997
378.315	0.0997
378.645	0.0986
378.975	0.0979
379.305	0.0954
379.635	0.0955
379.964	0.0947
380.294	0.094
380.623	0.0926
380.953	0.0913
381.282	0.091
381.611	0.0905
381.941	0.0894
382.27	0.088
382.599	0.087
382.928	0.0858
383.257	0.0846
383.585	0.0837
383.914	0.0822
384.243	0.0812
384.571	0.0804
384.9	0.0792
385.228	0.0777
385.557	0.0763
385.885	0.0746
386.213	0.0744
386.541	0.0739
386.869	0.0725
387.197	0.0706
387.525	0.0697
387.853	0.0688
388.181	0.0678
388.508	0.0664
388.836	0.0652
389.164	0.0648
389.491	0.0633
389.818	0.0622
390.146	0.0625
390.473	0.0617
390.8	0.0605
391.127	0.059
391.454	0.0583
391.781	0.0586
392.108	0.0575
392.435	0.056
392.761	0.0559
393.088	0.0553
393.415	0.0549
393.741	0.0549
394.067	0.0547
394.394	0.0537
394.72	0.0523
395.046	0.0513
395.372	0.0519
395.698	0.0505
396.024	0.0493
396.35	0.0495
396.676	0.0485
397.001	0.0477
397.327	0.0472
397.653	0.046
397.978	0.0458
398.303	0.0446
398.629	0.0441
398.954	0.0439
399.279	0.0439
399.604	0.043
399.929	0.0425
400.254	0.0422
400.579	0.0411
400.904	0.0405
401.229	0.0404
401.553	0.0403
401.878	0.0402
402.202	0.0397
402.527	0.039
402.851	0.0389
403.175	0.0378
403.5	0.0378
403.824	0.037
404.148	0.0373
404.472	0.0371
404.796	0.0364
405.119	0.037
405.443	0.0364
405.767	0.0357
406.09	0.036
406.414	0.0351
406.737	0.0361
407.061	0.0355
407.384	0.0352
407.707	0.0348
408.03	0.034
408.353	0.0344
408.676	0.0343
408.999	0.0342
409.322	0.0341
409.645	0.0342
409.968	0.0336
410.29	0.0336
410.613	0.0343
410.935	0.0331
411.258	0.0339
411.58	0.0332
411.902	0.0327
412.224	0.0332
412.546	0.0332
412.868	0.0337
413.19	0.0337
413.512	0.0334
413.834	0.0335
414.156	0.0332
414.477	0.0323
414.799	0.0333
415.121	0.0324
415.442	0.0327
415.763	0.0323
416.085	0.0332
416.406	0.0326
416.727	0.0334
417.048	0.0332
417.369	0.0328
417.69	0.0327
418.011	0.0328
418.331	0.0327
418.652	0.0325
418.973	0.0322
419.293	0.0326
419.614	0.0324
419.934	0.033
420.254	0.0323
420.574	0.0316
420.895	0.0319
421.215	0.0323
421.535	0.0326
421.855	0.0314
422.174	0.0315
422.494	0.0318
422.814	0.0322
423.134	0.0323
423.453	0.0319
423.773	0.0333
424.092	0.0329
424.411	0.0325
424.731	0.0326
425.05	0.0325
425.369	0.0321
425.688	0.0321
426.007	0.0324
426.326	0.0323
426.644	0.0324
426.963	0.0323
427.282	0.0317
427.6	0.0322
427.919	0.0322
428.237	0.0326
428.556	0.0324
428.874	0.0323
429.192	0.0322
429.51	0.032
429.828	0.0325
430.146	0.0326
430.464	0.0321
430.782	0.0317
431.1	0.0319
431.418	0.032
431.735	0.0317
432.053	0.0321
432.37	0.0323
432.688	0.0318
433.005	0.0312
433.322	0.033
433.639	0.0325
433.957	0.0323
434.274	0.0321
434.591	0.0326
434.907	0.0316
435.224	0.0325
435.541	0.0327
435.858	0.0336
436.174	0.0333
436.491	0.0321
436.807	0.0316
437.124	0.0316
437.44	0.0317
437.756	0.0323
438.072	0.0313
438.388	0.0317
438.704	0.032
439.02	0.0317
439.336	0.0312
439.652	0.0316
439.968	0.0315
440.283	0.0323
440.599	0.0315
440.914	0.0308
441.23	0.031
441.545	0.0308
441.86	0.0317
442.175	0.0315
442.491	0.0308
442.806	0.0312
443.121	0.0307
443.435	0.0306
443.75	0.0306
444.065	0.0306
444.38	0.031
444.694	0.0306
445.009	0.0304
445.323	0.0307
445.638	0.0302
445.952	0.0305
446.266	0.0299
446.58	0.0295
446.894	0.0304
447.208	0.0299
447.522	0.03
447.836	0.0308
448.15	0.03
448.464	0.0292
448.777	0.0298
449.091	0.0295
449.404	0.0289
449.718	0.0301
450.031	0.0285
450.345	0.0293
450.658	0.029
450.971	0.0291
451.284	0.0282
451.597	0.0296
451.91	0.0284
452.223	0.0287
452.535	0.0289
452.848	0.0285
453.161	0.0282
453.473	0.0283
453.786	0.0281
454.098	0.0286
454.411	0.0282
454.723	0.0282
455.035	0.0278
455.347	0.0275
455.659	0.0277
455.971	0.028
456.283	0.0282
456.595	0.0271
456.907	0.0277
457.218	0.0281
457.53	0.0274
457.841	0.0271
458.153	0.0269
458.464	0.0258
458.776	0.0265
459.087	0.0266
459.398	0.0264
459.709	0.0257
460.02	0.0267
460.331	0.0266
460.642	0.0263
460.953	0.0261
461.263	0.0265
461.574	0.0253
461.885	0.026
462.195	0.0249
462.506	0.0249
462.816	0.026
463.126	0.0248
463.437	0.0249
463.747	0.0245
464.057	0.0236
464.367	0.0233
464.677	0.0242
464.987	0.0245
465.296	0.0237
465.606	0.023
465.916	0.0232
466.225	0.0233
466.535	0.0226
466.844	0.0233
467.154	0.0241
467.463	0.0232
467.772	0.023
468.081	0.023
468.39	0.0233
468.699	0.0226
469.008	0.0227
469.317	0.0227
469.626	0.0224
469.935	0.0219
470.243	0.0226
470.552	0.0216
470.86	0.0224
471.169	0.0208
471.477	0.0206
471.785	0.0206
472.093	0.0205
472.402	0.0206
472.71	0.0205
473.018	0.0198
473.326	0.0207
473.633	0.0201
473.941	0.0197
474.249	0.0202
474.556	0.0192
474.864	0.0197
475.171	0.02
475.479	0.0189
475.786	0.0196
476.094	0.0196
476.401	0.0191
476.708	0.0189
477.015	0.0184
477.322	0.0177
477.629	0.0177
477.936	0.0181
478.242	0.0181
478.549	0.0184
478.856	0.0179
479.162	0.0175
479.469	0.0175
479.775	0.0169
480.081	0.0163
480.388	0.0163
480.694	0.0171
481	0.0161
481.306	0.0161
481.612	0.0168
481.918	0.0178
482.224	0.0165
482.53	0.0165
482.835	0.0163
483.141	0.0161
483.446	0.0158
483.752	0.0149
484.057	0.0155
484.363	0.0151
484.668	0.0157
484.973	0.0146
485.278	0.0142
485.583	0.0137
485.888	0.0143
486.193	0.0124
486.498	0.0145
486.803	0.0143
487.107	0.0135
487.412	0.0128
487.717	0.0132
488.021	0.0139
488.325	0.0125
488.63	0.0134
488.934	0.0129
489.238	0.0126
489.542	0.0132
489.846	0.0125
490.15	0.0128
490.454	0.0134
490.758	0.0123
491.062	0.0121
491.366	0.0122
491.669	0.0119
491.973	0.0115
492.276	0.0116
492.58	0.011
492.883	0.0121
493.186	0.011
493.489	0.0114
493.792	0.0103
494.096	0.0102
494.399	0.0103
494.701	0.0102
495.004	0.0096
495.307	0.0097
495.61	0.0095
495.912	0.0106
496.215	0.0105
496.517	0.0107
496.82	0.0097
497.122	0.01
497.424	0.0102
497.727	0.0089
498.029	0.0087
498.331	0.0093
498.633	0.0095
498.935	0.0085
499.237	0.0096
499.538	0.0092
499.84	0.0085
500.142	0.0079
500.443	0.0088
500.745	0.0086
501.046	0.0079
501.348	0.0075
501.649	0.0065
501.95	0.0073
502.251	0.0085
502.552	0.0072
502.853	0.008
503.154	0.0083
503.455	0.007
503.756	0.0085
504.057	0.0071
504.357	0.0076
504.658	0.0075
504.958	0.0076
505.259	0.0073
505.559	0.006
505.859	0.0062
506.16	0.006
506.46	0.0064
506.76	0.0065
507.06	0.0051
507.36	0.0056
507.66	0.0065
507.96	0.0075
508.259	0.006
508.559	0.0061
508.859	0.006
509.158	0.0065
509.457	0.0049
509.757	0.0049
510.056	0.0052
510.355	0.0057
510.655	0.005
510.954	0.0043
511.253	0.0051
511.552	0.0051
511.851	0.0042
512.149	0.0053
512.448	0.0047
512.747	0.005
513.045	0.0042
513.344	0.0041
513.642	0.0048
513.941	0.0052
514.239	0.0052
514.537	0.0052
514.836	0.0043
515.134	0.0047
515.432	0.0041
515.73	0.0041
516.028	0.0043
516.326	0.0041
516.623	0.0035
516.921	0.0037
517.219	0.0046
517.516	0.0035
517.814	0.0054
518.111	0.0042
518.409	0.0046
518.706	0.0035
519.003	0.0041
519.3	0.0037
519.597	0.0038
519.894	0.0036
520.191	0.0051
520.488	0.0046
520.785	0.0039
521.082	0.0048
521.378	0.0047
521.675	0.003
521.971	0.0039
522.268	0.0038
522.564	0.0049
522.861	0.0049
523.157	0.0031
523.453	0.0042
523.749	0.004
524.045	0.0036
524.341	0.0035
524.637	0.003
524.933	0.0037
525.229	0.0032
525.524	0.0035
525.82	0.0038
526.115	0.0037
526.411	0.004
526.706	0.0027
527.002	0.003
527.297	0.0029
527.592	0.0024
527.887	0.0031
528.182	0.0017
528.477	0.0033
528.772	0.0029
529.067	0.0038
529.362	0.0043
529.657	0.003
529.951	0.0033
530.246	0.0023
530.54	0.0029
530.835	0.0025
531.129	0.003
531.423	0.0022
531.718	0.0024
532.012	0.0024
532.306	0.0033
532.6	0.002
532.894	0.0024
533.188	0.0025
533.482	0.0028
533.775	0.0028
534.069	0.0031
534.363	0.0026
534.656	0.0032
534.95	0.0026
535.243	0.0014
535.536	0.0026
535.83	0.0021
536.123	0.0016
536.416	0.0019
536.709	0.0023
537.002	0.0036
537.295	0.0026
537.588	0.0027
537.881	0.0027
538.173	0.0022
538.466	0.0024
538.759	0.0026
539.051	0.0035
539.344	0.0038
539.636	0.0019
539.928	0.0038
540.22	0.0022
540.513	0.0034
540.805	0.0033
541.097	0.0023
541.389	0.0026
541.681	0.0032
541.972	0.0028
542.264	0.0034
542.556	0.0043
542.847	0.0034
543.139	0.004
543.431	0.0018
543.722	0.0021
544.013	0.0035
544.305	0.0033
544.596	0.0034
544.887	0.0032
545.178	0.0046
545.469	0.0034
545.76	0.0046
546.051	0.0038
546.342	0.0031
546.632	0.0032
546.923	0.0028
547.214	0.0027
547.504	0.003
547.795	0.003
548.085	0.0032
548.375	0.0032
548.666	0.0031
548.956	0.0027
549.246	0.0047
549.536	0.0037
549.826	0.0046
550.116	0.0041
550.406	0.0032
550.695	0.0021
550.985	0.0034
551.275	0.0036
551.564	0.0046
551.854	0.0047
552.143	0.0031
552.433	0.0038
552.722	0.0037
553.011	0.004
553.3	0.0035
553.589	0.0043
553.879	0.0041
554.167	0.0036
554.456	0.0029
554.745	0.0036
555.034	0.0042
555.323	0.0038
555.611	0.0037
555.9	0.0032
556.188	0.0027
556.477	0.0031
556.765	0.0032
557.053	0.0045
557.342	0.0032
557.63	0.0027
557.918	0.0026
558.206	0.0033
558.494	0.0036
558.782	0.0038
559.069	0.0049
559.357	0.0027
559.645	0.0042
559.932	0.0038
560.22	0.0043
560.507	0.0014
560.795	0.0021
561.082	0.0014
561.37	0.0029
561.657	0.0026
561.944	0.0029
562.231	0.0023
562.518	0.0034
562.805	0.0043
563.092	0.0024
563.379	0.0028
563.665	0.003
563.952	0.004
564.239	0.0038
564.525	0.0035
564.811	0.0041
565.098	0.0036
565.384	0.0034
565.67	0.0031
565.957	0.004
566.243	0.0047
566.529	0.0029
566.815	0.0024
567.101	0.0026
567.387	0.0037
567.672	0.0034
567.958	0.0019
568.244	0.002
568.529	0.0028
568.815	0.0022
569.1	0.002
569.386	0.0035
569.671	0.0028
569.956	0.0029
570.242	0.0018
570.527	0.0017
570.812	0.0018
571.097	0.0013
571.382	0.0012
571.666	0.0018
571.951	0.0025
572.236	0.0025
572.521	0.0026
572.805	0.0036
573.09	0.0026
573.374	0.0015
573.659	0.0014
573.943	0.0023
574.227	0.0036
574.511	0.0023
574.795	0.0028
575.079	0.0024
575.363	0.0027
575.647	0.0027
575.931	0.0029
576.215	0.0031
576.499	0.0015
576.782	0.0016
577.066	0.0019
577.349	0.003
577.633	0.0033
577.916	0.002
578.2	0.0026
578.483	0.0026
578.766	0.0034
579.049	0.0026
579.332	0.003
579.615	0.0014
579.898	0.0019
580.181	0.0026
580.464	0.0033
580.746	0.0022
581.029	0.0029
581.312	0.0017
581.594	0.001
581.877	0.002
582.159	0.0031
582.441	0.002
582.724	0.0033
583.006	0.0032
583.288	0.0027
583.57	0.0025
583.852	0.0039
584.134	0.0036
584.416	0.002
584.697	0.0019
584.979	0.0016
585.261	0.0014
585.542	0.0021
585.824	0.0026
586.105	0.0025
586.387	0.0023
586.668	0.0028
586.949	0.0033
587.231	0.0035
587.512	0.0032
587.793	0.0024
588.074	0.003
588.355	0.0029
588.636	0.0022
588.916	0.0036
589.197	0.0025
589.478	0.0026
589.758	0.0022
590.039	0.0018
590.319	0.0015
590.6	0.001
590.88	0.0018
591.16	0.0018
591.441	0.0033
591.721	0.0015
592.001	0.0022
592.281	0.0024
592.561	0.0029
592.841	0.0023
593.12	0.0022
593.4	0.0023
593.68	0.0026
593.959	0.002
594.239	0.0032
594.518	0.0038
594.798	0.0037
595.077	0.0024
595.356	0.0023
595.636	0.0023
595.915	0.0024
596.194	0.0031
596.473	0.0029
596.752	0.0025
