Data from 03 0.4 mM K2Cr2O7 0.25 M BQDS 1 M H2SO4 5 min_Absorbance_0053.txt Node
Date: Tue Dec 14 21:55:13 EST 2021
User: kwabilab-user
Spectrometer: HDX00518
Trigger mode: 0
Integration Time (sec): 5.000000E-2
Scans to average: 50
Nonlinearity correction enabled: false
Boxcar width: 0
Storing dark spectrum: false
XAxis mode: Wavelengths
Number of Pixels in Spectrum: 2068
>>>>>Begin Spectral Data<<<<<
195.27	0.0111
195.642	0.0564
196.014	-0.212
196.386	0.0985
196.758	-0.0725
197.129	0.0084
197.501	-0.0051
197.872	0.0185
198.244	0.0141
198.615	0.0328
198.986	0.027
199.357	0.029
199.728	0.0409
200.099	0.0245
200.47	0.0359
200.841	0.0314
201.212	0.0209
201.582	0.0438
201.953	0.0419
202.323	0.0386
202.694	0.0215
203.064	0.0187
203.434	0.0193
203.804	0.0233
204.174	0.0118
204.544	0.0409
204.914	0.0214
205.284	0.0381
205.653	0.0163
206.023	0.0019
206.393	0.0319
206.762	0.0194
207.131	0.0245
207.501	0.0317
207.87	0.015
208.239	0.0108
208.608	0.0291
208.977	0.0005
209.346	0.0089
209.715	0.0275
210.083	0.0261
210.452	0.0179
210.82	0.0354
211.189	0.0051
211.557	0.0343
211.925	0.0093
212.294	0.0223
212.662	0.0184
213.03	0.0356
213.398	0.0178
213.766	0.0144
214.133	0.0062
214.501	0.0067
214.869	0.0226
215.236	0.0166
215.604	0.0287
215.971	0.0463
216.338	0.0469
216.705	0.0385
217.072	0.0468
217.439	0.0418
217.806	0.044
218.173	0.0501
218.54	0.0523
218.907	0.0726
219.273	0.0591
219.64	0.0649
220.006	0.0798
220.373	0.0841
220.739	0.0978
221.105	0.1307
221.471	0.1294
221.837	0.1485
222.203	0.1751
222.569	0.1812
222.935	0.1943
223.3	0.2224
223.666	0.2365
224.031	0.2717
224.397	0.281
224.762	0.3153
225.127	0.3294
225.493	0.3616
225.858	0.3994
226.223	0.3992
226.588	0.4572
226.952	0.4396
227.317	0.4829
227.682	0.4775
228.046	0.4894
228.411	0.5336
228.775	0.528
229.14	0.5451
229.504	0.5649
229.868	0.5597
230.232	0.5724
230.596	0.592
230.96	0.6159
231.324	0.6072
231.688	0.6105
232.052	0.6251
232.415	0.623
232.779	0.6455
233.142	0.6275
233.505	0.6297
233.869	0.6507
234.232	0.6506
234.595	0.6446
234.958	0.6364
235.321	0.648
235.684	0.6397
236.047	0.6406
236.409	0.6297
236.772	0.639
237.134	0.6469
237.497	0.634
237.859	0.6338
238.222	0.6422
238.584	0.6196
238.946	0.6255
239.308	0.6272
239.67	0.6147
240.032	0.6253
240.393	0.6155
240.755	0.6208
241.117	0.61
241.478	0.6143
241.84	0.6167
242.201	0.6061
242.562	0.6074
242.924	0.6001
243.285	0.5918
243.646	0.6001
244.007	0.5955
244.368	0.5953
244.728	0.5979
245.089	0.5852
245.45	0.5812
245.81	0.5815
246.171	0.5808
246.531	0.5825
246.891	0.5867
247.252	0.5724
247.612	0.587
247.972	0.5788
248.332	0.5748
248.692	0.5777
249.051	0.5772
249.411	0.5784
249.771	0.5708
250.13	0.5753
250.49	0.5787
250.849	0.5744
251.208	0.574
251.568	0.5788
251.927	0.575
252.286	0.5715
252.645	0.5721
253.004	0.5745
253.363	0.5693
253.721	0.5794
254.08	0.5712
254.439	0.5705
254.797	0.5674
255.155	0.5656
255.514	0.5655
255.872	0.5711
256.23	0.5683
256.588	0.5703
256.946	0.5691
257.304	0.5677
257.662	0.5708
258.02	0.5659
258.377	0.5613
258.735	0.5637
259.093	0.5525
259.45	0.5617
259.807	0.5604
260.165	0.5614
260.522	0.5593
260.879	0.5551
261.236	0.5568
261.593	0.5564
261.95	0.5516
262.306	0.5529
262.663	0.5519
263.02	0.5488
263.376	0.5515
263.733	0.5462
264.089	0.5404
264.445	0.5434
264.802	0.5435
265.158	0.5414
265.514	0.5364
265.87	0.5384
266.226	0.5361
266.581	0.5357
266.937	0.5282
267.293	0.5293
267.648	0.5256
268.004	0.5261
268.359	0.5228
268.714	0.5192
269.07	0.5177
269.425	0.5122
269.78	0.5148
270.135	0.514
270.49	0.5056
270.844	0.5078
271.199	0.5054
271.554	0.497
271.908	0.4969
272.263	0.4994
272.617	0.495
272.972	0.4855
273.326	0.4894
273.68	0.4803
274.034	0.4785
274.388	0.4731
274.742	0.4747
275.096	0.472
275.45	0.4678
275.803	0.4684
276.157	0.4599
276.51	0.4527
276.864	0.4522
277.217	0.4505
277.571	0.446
277.924	0.4387
278.277	0.4372
278.63	0.4334
278.983	0.4267
279.336	0.423
279.688	0.4209
280.041	0.4168
280.394	0.4112
280.746	0.4093
281.099	0.4047
281.451	0.4035
281.803	0.3981
282.156	0.3928
282.508	0.3877
282.86	0.3857
283.212	0.3844
283.564	0.3754
283.916	0.3737
284.267	0.3672
284.619	0.3678
284.971	0.3606
285.322	0.3593
285.673	0.354
286.025	0.3505
286.376	0.3493
286.727	0.3419
287.078	0.3395
287.429	0.3355
287.78	0.3305
288.131	0.3299
288.482	0.325
288.833	0.3205
289.183	0.3174
289.534	0.3132
289.884	0.3091
290.235	0.307
290.585	0.3031
290.935	0.2976
291.285	0.2962
291.635	0.2912
291.985	0.2892
292.335	0.2845
292.685	0.2803
293.035	0.2764
293.384	0.2732
293.734	0.2707
294.083	0.2666
294.433	0.2639
294.782	0.2606
295.131	0.2561
295.48	0.2541
295.829	0.2503
296.179	0.2476
296.527	0.2419
296.876	0.2406
297.225	0.236
297.574	0.233
297.922	0.2298
298.271	0.2277
298.619	0.2226
298.968	0.2214
299.316	0.2185
299.664	0.2155
300.012	0.2121
300.36	0.2097
300.708	0.2073
301.056	0.2044
301.404	0.2002
301.752	0.1997
302.099	0.1955
302.447	0.1938
302.794	0.1919
303.142	0.1895
303.489	0.1871
303.836	0.1839
304.183	0.1818
304.531	0.1811
304.878	0.1778
305.224	0.1758
305.571	0.1751
305.918	0.1733
306.265	0.17
306.611	0.1692
306.958	0.1687
307.304	0.1663
307.651	0.1655
307.997	0.1638
308.343	0.1623
308.689	0.1615
309.035	0.1611
309.381	0.159
309.727	0.1584
310.073	0.1567
310.419	0.1561
310.764	0.1562
311.11	0.1537
311.455	0.1533
311.801	0.1529
312.146	0.1514
312.491	0.1513
312.837	0.1509
313.182	0.1501
313.527	0.1494
313.872	0.1503
314.216	0.1492
314.561	0.1486
314.906	0.1478
315.251	0.1489
315.595	0.149
315.94	0.1491
316.284	0.1488
316.628	0.1489
316.972	0.1491
317.317	0.1489
317.661	0.1495
318.005	0.1491
318.348	0.1498
318.692	0.1503
319.036	0.1506
319.38	0.1514
319.723	0.1511
320.067	0.1519
320.41	0.1522
320.754	0.153
321.097	0.1524
321.44	0.1538
321.783	0.1553
322.126	0.1559
322.469	0.1563
322.812	0.1573
323.155	0.1582
323.498	0.1585
323.84	0.1597
324.183	0.1607
324.525	0.1619
324.868	0.1633
325.21	0.1633
325.552	0.1644
325.894	0.1654
326.236	0.1656
326.578	0.1671
326.92	0.1683
327.262	0.1687
327.604	0.1701
327.946	0.1712
328.287	0.1725
328.629	0.1737
328.97	0.1743
329.312	0.1753
329.653	0.1768
329.994	0.1788
330.335	0.1798
330.676	0.1807
331.017	0.1817
331.358	0.1836
331.699	0.1844
332.04	0.1851
332.38	0.1861
332.721	0.1876
333.061	0.189
333.402	0.191
333.742	0.1903
334.083	0.192
334.423	0.1928
334.763	0.1943
335.103	0.1957
335.443	0.1964
335.783	0.1973
336.123	0.198
336.462	0.1989
336.802	0.2006
337.141	0.2009
337.481	0.2018
337.82	0.2031
338.16	0.204
338.499	0.205
338.838	0.2059
339.177	0.2068
339.516	0.208
339.855	0.2081
340.194	0.2099
340.533	0.2096
340.872	0.2102
341.21	0.2119
341.549	0.212
341.887	0.2133
342.226	0.2127
342.564	0.2139
342.902	0.2143
343.24	0.2146
343.578	0.2155
343.916	0.2151
344.254	0.2153
344.592	0.2154
344.93	0.2169
345.268	0.2154
345.605	0.2164
345.943	0.2165
346.28	0.2166
346.618	0.2173
346.955	0.2166
347.292	0.2171
347.629	0.2177
347.966	0.2171
348.303	0.2174
348.64	0.217
348.977	0.2173
349.314	0.2179
349.65	0.2164
349.987	0.2168
350.324	0.2165
350.66	0.2173
350.996	0.2165
351.333	0.2158
351.669	0.2153
352.005	0.2156
352.341	0.2142
352.677	0.2134
353.013	0.2118
353.349	0.2117
353.685	0.2104
354.02	0.2101
354.356	0.2096
354.691	0.2085
355.027	0.207
355.362	0.2064
355.697	0.2057
356.033	0.2046
356.368	0.2043
356.703	0.2027
357.038	0.2019
357.373	0.2015
357.707	0.2006
358.042	0.1991
358.377	0.1994
358.711	0.198
359.046	0.1966
359.38	0.1966
359.715	0.1951
360.049	0.1946
360.383	0.1929
360.717	0.1922
361.051	0.1911
361.385	0.1902
361.719	0.1878
362.053	0.1882
362.387	0.1852
362.72	0.1841
363.054	0.1831
363.387	0.1816
363.721	0.1797
364.054	0.1785
364.387	0.1766
364.721	0.1744
365.054	0.1737
365.387	0.1723
365.72	0.1716
366.053	0.17
366.385	0.1677
366.718	0.1675
367.051	0.1654
367.383	0.165
367.716	0.1632
368.048	0.1626
368.381	0.1611
368.713	0.1596
369.045	0.1587
369.377	0.1578
369.709	0.1567
370.041	0.1557
370.373	0.1542
370.705	0.1529
371.037	0.1518
371.368	0.1505
371.7	0.1488
372.031	0.1479
372.363	0.1459
372.694	0.145
373.025	0.1432
373.356	0.1417
373.688	0.14
374.019	0.1387
374.35	0.1361
374.68	0.1349
375.011	0.1326
375.342	0.132
375.673	0.1298
376.003	0.1276
376.334	0.127
376.664	0.1248
376.995	0.1235
377.325	0.122
377.655	0.121
377.985	0.1193
378.315	0.1184
378.645	0.1169
378.975	0.1167
379.305	0.1146
379.635	0.1143
379.964	0.1127
380.294	0.1116
380.623	0.111
380.953	0.1091
381.282	0.1084
381.611	0.1077
381.941	0.1068
382.27	0.1053
382.599	0.1039
382.928	0.1024
383.257	0.1012
383.585	0.1009
383.914	0.0981
384.243	0.0976
384.571	0.0962
384.9	0.0945
385.228	0.0933
385.557	0.0926
385.885	0.0912
386.213	0.0897
386.541	0.0878
386.869	0.0862
387.197	0.0851
387.525	0.0844
387.853	0.0835
388.181	0.0819
388.508	0.0806
388.836	0.0794
389.164	0.0779
389.491	0.077
389.818	0.0754
390.146	0.0747
390.473	0.0739
390.8	0.0735
391.127	0.0718
391.454	0.0705
391.781	0.0706
392.108	0.0696
392.435	0.0683
392.761	0.0682
393.088	0.067
393.415	0.0666
393.741	0.0658
394.067	0.0655
394.394	0.0646
394.72	0.0635
395.046	0.0623
395.372	0.0619
395.698	0.061
396.024	0.0599
396.35	0.0597
396.676	0.0583
397.001	0.0581
397.327	0.0575
397.653	0.056
397.978	0.0555
398.303	0.0545
398.629	0.0539
398.954	0.0538
399.279	0.0537
399.604	0.0519
399.929	0.0517
400.254	0.0502
400.579	0.0504
400.904	0.0493
401.229	0.0492
401.553	0.0489
401.878	0.0489
402.202	0.0481
402.527	0.0472
402.851	0.0476
403.175	0.0465
403.5	0.0462
403.824	0.0454
404.148	0.0452
404.472	0.0444
404.796	0.0445
405.119	0.0439
405.443	0.044
405.767	0.0434
406.09	0.0437
406.414	0.0431
406.737	0.0436
407.061	0.0429
407.384	0.0429
407.707	0.0423
408.03	0.0419
408.353	0.0418
408.676	0.0421
408.999	0.0419
409.322	0.0413
409.645	0.0404
409.968	0.0411
410.29	0.0409
410.613	0.0418
410.935	0.0404
411.258	0.0401
411.58	0.0397
411.902	0.0403
412.224	0.04
412.546	0.0403
412.868	0.0409
413.19	0.0397
413.512	0.0396
413.834	0.0399
414.156	0.0401
414.477	0.0401
414.799	0.04
415.121	0.0393
415.442	0.0391
415.763	0.0393
416.085	0.0396
416.406	0.0394
416.727	0.0397
417.048	0.0396
417.369	0.0396
417.69	0.0389
418.011	0.0397
418.331	0.0388
418.652	0.0391
418.973	0.039
419.293	0.039
419.614	0.0384
419.934	0.0394
420.254	0.0391
420.574	0.0381
420.895	0.0387
421.215	0.0384
421.535	0.0388
421.855	0.038
422.174	0.0377
422.494	0.0383
422.814	0.0381
423.134	0.039
423.453	0.0393
423.773	0.0393
424.092	0.0388
424.411	0.0389
424.731	0.0392
425.05	0.0393
425.369	0.0387
425.688	0.0387
426.007	0.039
426.326	0.0395
426.644	0.0384
426.963	0.0388
427.282	0.0387
427.6	0.0393
427.919	0.0392
428.237	0.0393
428.556	0.0392
428.874	0.0387
429.192	0.0386
429.51	0.0388
429.828	0.039
430.146	0.0396
430.464	0.0389
430.782	0.0386
431.1	0.0382
431.418	0.0379
431.735	0.0383
432.053	0.0382
432.37	0.039
432.688	0.0382
433.005	0.0379
433.322	0.0391
433.639	0.0398
433.957	0.0386
434.274	0.0392
434.591	0.0389
434.907	0.038
435.224	0.0389
435.541	0.0386
435.858	0.0396
436.174	0.0395
436.491	0.0388
436.807	0.0385
437.124	0.0383
437.44	0.0381
437.756	0.0387
438.072	0.0377
438.388	0.0376
438.704	0.0381
439.02	0.0379
439.336	0.0381
439.652	0.0375
439.968	0.0382
440.283	0.0385
440.599	0.038
440.914	0.0383
441.23	0.038
441.545	0.0378
441.86	0.0376
442.175	0.0382
442.491	0.0371
442.806	0.0376
443.121	0.0369
443.435	0.0375
443.75	0.0372
444.065	0.0368
444.38	0.0371
444.694	0.0373
445.009	0.0371
445.323	0.0373
445.638	0.0368
445.952	0.037
446.266	0.0366
446.58	0.0359
446.894	0.0364
447.208	0.0362
447.522	0.0359
447.836	0.0369
448.15	0.0365
448.464	0.035
448.777	0.0361
449.091	0.0352
449.404	0.0358
449.718	0.0359
450.031	0.0348
450.345	0.0357
450.658	0.0351
450.971	0.0353
451.284	0.0349
451.597	0.0357
451.91	0.035
452.223	0.0351
452.535	0.0346
452.848	0.0346
453.161	0.0348
453.473	0.0348
453.786	0.0342
454.098	0.0346
454.411	0.0342
454.723	0.0345
455.035	0.0332
455.347	0.0343
455.659	0.0338
455.971	0.0346
456.283	0.0335
456.595	0.0343
456.907	0.0339
457.218	0.0343
457.53	0.0329
457.841	0.0324
458.153	0.0333
458.464	0.0324
458.776	0.0326
459.087	0.0326
459.398	0.0325
459.709	0.0317
460.02	0.0326
460.331	0.0321
460.642	0.032
460.953	0.0316
461.263	0.0318
461.574	0.0308
461.885	0.0319
462.195	0.0307
462.506	0.0313
462.816	0.0314
463.126	0.0306
463.437	0.0303
463.747	0.0296
464.057	0.0291
464.367	0.0292
464.677	0.0292
464.987	0.0301
465.296	0.0291
465.606	0.0293
465.916	0.0284
466.225	0.0288
466.535	0.0284
466.844	0.0292
467.154	0.0291
467.463	0.0282
467.772	0.0281
468.081	0.0284
468.39	0.0279
468.699	0.0281
469.008	0.0275
469.317	0.0272
469.626	0.0275
469.935	0.0271
470.243	0.0269
470.552	0.0266
470.86	0.0267
471.169	0.0264
471.477	0.0258
471.785	0.0255
472.093	0.0257
472.402	0.0249
472.71	0.025
473.018	0.025
473.326	0.0249
473.633	0.0252
473.941	0.0254
474.249	0.0244
474.556	0.0239
474.864	0.0242
475.171	0.0241
475.479	0.0236
475.786	0.0245
476.094	0.0237
476.401	0.0231
476.708	0.0238
477.015	0.0233
477.322	0.0216
477.629	0.0216
477.936	0.0219
478.242	0.0218
478.549	0.0217
478.856	0.0219
479.162	0.0219
479.469	0.0219
479.775	0.0208
480.081	0.0204
480.388	0.021
480.694	0.0208
481	0.0207
481.306	0.0203
481.612	0.0204
481.918	0.0209
482.224	0.0208
482.53	0.0199
482.835	0.0201
483.141	0.02
483.446	0.0194
483.752	0.0191
484.057	0.0186
484.363	0.0198
484.668	0.0195
484.973	0.0185
485.278	0.0178
485.583	0.0181
485.888	0.0179
486.193	0.0175
486.498	0.018
486.803	0.0179
487.107	0.0172
487.412	0.016
487.717	0.0169
488.021	0.0168
488.325	0.0166
488.63	0.0166
488.934	0.0168
489.238	0.0154
489.542	0.016
489.846	0.016
490.15	0.0164
490.454	0.0168
490.758	0.0152
491.062	0.0151
491.366	0.0152
491.669	0.0154
491.973	0.0155
492.276	0.015
492.58	0.014
492.883	0.0145
493.186	0.0147
493.489	0.0144
493.792	0.0139
494.096	0.0135
494.399	0.013
494.701	0.0128
495.004	0.0131
495.307	0.0133
495.61	0.0138
495.912	0.0141
496.215	0.0139
496.517	0.0135
496.82	0.0132
497.122	0.013
497.424	0.0131
497.727	0.0124
498.029	0.0119
498.331	0.0119
498.633	0.0115
498.935	0.0115
499.237	0.0124
499.538	0.0117
499.84	0.0119
500.142	0.0118
500.443	0.0109
500.745	0.0107
501.046	0.0105
501.348	0.0099
501.649	0.0101
501.95	0.0107
502.251	0.0107
502.552	0.0099
502.853	0.0103
503.154	0.0114
503.455	0.0092
503.756	0.01
504.057	0.0086
504.357	0.0093
504.658	0.0102
504.958	0.0098
505.259	0.0095
505.559	0.0091
505.859	0.0081
506.16	0.0086
506.46	0.0083
506.76	0.0084
507.06	0.0072
507.36	0.0076
507.66	0.0083
507.96	0.0097
508.259	0.0082
508.559	0.0074
508.859	0.0082
509.158	0.0082
509.457	0.0072
509.757	0.0079
510.056	0.0071
510.355	0.0077
510.655	0.0069
510.954	0.007
511.253	0.007
511.552	0.0083
511.851	0.0069
512.149	0.0068
512.448	0.0065
512.747	0.0065
513.045	0.0065
513.344	0.0072
513.642	0.007
513.941	0.0067
514.239	0.0064
514.537	0.0062
514.836	0.0059
515.134	0.0056
515.432	0.0059
515.73	0.0058
516.028	0.0054
516.326	0.0052
516.623	0.0051
516.921	0.0056
517.219	0.0063
517.516	0.0052
517.814	0.0058
518.111	0.005
518.409	0.0058
518.706	0.0068
519.003	0.0044
519.3	0.0046
519.597	0.0054
519.894	0.0042
520.191	0.0064
520.488	0.0056
520.785	0.0056
521.082	0.0064
521.378	0.0052
521.675	0.0045
521.971	0.0047
522.268	0.0053
522.564	0.0041
522.861	0.0049
523.157	0.0049
523.453	0.0055
523.749	0.0049
524.045	0.0039
524.341	0.0051
524.637	0.0045
524.933	0.0057
525.229	0.0052
525.524	0.0046
525.82	0.0054
526.115	0.0054
526.411	0.0043
526.706	0.0046
527.002	0.0049
527.297	0.0039
527.592	0.0051
527.887	0.0037
528.182	0.0028
528.477	0.0046
528.772	0.0044
529.067	0.0044
529.362	0.0044
529.657	0.0043
529.951	0.0041
530.246	0.0037
530.54	0.0022
530.835	0.0037
531.129	0.0044
531.423	0.0041
531.718	0.0033
532.012	0.0033
532.306	0.0039
532.6	0.0038
532.894	0.004
533.188	0.0028
533.482	0.0025
533.775	0.0034
534.069	0.0043
534.363	0.0029
534.656	0.0031
534.95	0.0031
535.243	0.0024
535.536	0.0024
535.83	0.0023
536.123	0.0027
536.416	0.0021
536.709	0.0036
537.002	0.0043
537.295	0.0032
537.588	0.0042
537.881	0.003
538.173	0.0037
538.466	0.003
538.759	0.003
539.051	0.0041
539.344	0.003
539.636	0.0033
539.928	0.0046
540.22	0.0031
540.513	0.0042
540.805	0.0039
541.097	0.004
541.389	0.0033
541.681	0.0033
541.972	0.0025
542.264	0.0046
542.556	0.0053
542.847	0.0031
543.139	0.0041
543.431	0.0029
543.722	0.0034
544.013	0.0032
544.305	0.0038
544.596	0.0041
544.887	0.0032
545.178	0.005
545.469	0.0045
545.76	0.0039
546.051	0.0039
546.342	0.0028
546.632	0.0035
546.923	0.003
547.214	0.0034
547.504	0.0039
547.795	0.0034
548.085	0.0028
548.375	0.0035
548.666	0.0037
548.956	0.0028
549.246	0.0039
549.536	0.004
549.826	0.0041
550.116	0.0047
550.406	0.0036
550.695	0.0039
550.985	0.0034
551.275	0.0042
551.564	0.0039
551.854	0.0051
552.143	0.0036
552.433	0.0035
552.722	0.0033
553.011	0.0042
553.3	0.0038
553.589	0.0046
553.879	0.0036
554.167	0.0038
554.456	0.0042
554.745	0.0037
555.034	0.0053
555.323	0.0039
555.611	0.0037
555.9	0.0038
556.188	0.0037
556.477	0.0032
556.765	0.0042
557.053	0.0036
557.342	0.0037
557.63	0.0031
557.918	0.0043
558.206	0.0034
558.494	0.0052
558.782	0.0047
559.069	0.0046
559.357	0.0036
559.645	0.0038
559.932	0.0039
560.22	0.0036
560.507	0.0016
560.795	0.0036
561.082	0.002
561.37	0.004
561.657	0.0019
561.944	0.0021
562.231	0.0026
562.518	0.0037
562.805	0.0041
563.092	0.0029
563.379	0.004
563.665	0.0038
563.952	0.005
564.239	0.0047
564.525	0.0034
564.811	0.0038
565.098	0.0034
565.384	0.0038
565.67	0.0029
565.957	0.0038
566.243	0.0033
566.529	0.003
566.815	0.0036
567.101	0.0034
567.387	0.0032
567.672	0.0035
567.958	0.0027
568.244	0.0026
568.529	0.0026
568.815	0.0024
569.1	0.0022
569.386	0.0032
569.671	0.0027
569.956	0.0033
570.242	0.0023
570.527	0.0027
570.812	0.0023
571.097	0.0024
571.382	0.0023
571.666	0.0022
571.951	0.0037
572.236	0.0024
572.521	0.0035
572.805	0.0038
573.09	0.0032
573.374	0.0027
573.659	0.0024
573.943	0.0024
574.227	0.0031
574.511	0.0031
574.795	0.0029
575.079	0.0029
575.363	0.0032
575.647	0.0026
575.931	0.003
576.215	0.0033
576.499	0.0023
576.782	0.0021
577.066	0.0026
577.349	0.0032
577.633	0.0037
577.916	0.0026
578.2	0.0035
578.483	0.0032
578.766	0.004
579.049	0.0039
579.332	0.0038
579.615	0.0027
579.898	0.0026
580.181	0.0035
580.464	0.0032
580.746	0.0025
581.029	0.0032
581.312	0.0019
581.594	0.002
581.877	0.0024
582.159	0.0034
582.441	0.0021
582.724	0.0028
583.006	0.0029
583.288	0.0027
583.57	0.0029
583.852	0.0038
584.134	0.0039
584.416	0.0027
584.697	0.0029
584.979	0.0032
585.261	0.0028
585.542	0.0029
585.824	0.0038
586.105	0.0035
586.387	0.0035
586.668	0.0031
586.949	0.0036
587.231	0.0036
587.512	0.0036
587.793	0.0025
588.074	0.0026
588.355	0.0031
588.636	0.0029
588.916	0.0033
589.197	0.0016
589.478	0.0034
589.758	0.0026
590.039	0.0022
590.319	0.0019
590.6	0.0024
590.88	0.0022
591.16	0.0024
591.441	0.0028
591.721	0.0021
592.001	0.0023
592.281	0.0026
592.561	0.0026
592.841	0.0028
593.12	0.0024
593.4	0.0026
593.68	0.0024
593.959	0.0029
594.239	0.003
594.518	0.003
594.798	0.0037
595.077	0.0028
595.356	0.0024
595.636	0.0028
595.915	0.0027
596.194	0.0029
596.473	0.0032
