Data from 03 0.4 mM K2Cr2O7 0.25 M BQDS 1 M H2SO4 5 min_Absorbance_0203.txt Node
Date: Wed Dec 15 10:25:12 EST 2021
User: kwabilab-user
Spectrometer: HDX00518
Trigger mode: 0
Integration Time (sec): 5.000000E-2
Scans to average: 50
Nonlinearity correction enabled: false
Boxcar width: 0
Storing dark spectrum: false
XAxis mode: Wavelengths
Number of Pixels in Spectrum: 2068
>>>>>Begin Spectral Data<<<<<
195.27	-0.2062
195.642	0.0318
196.014	-0.2744
196.386	-0.2225
196.758	-0.0867
197.129	0.0053
197.501	-0.0242
197.872	0.0045
198.244	-0.0028
198.615	0.0283
198.986	0.0057
199.357	0.0183
199.728	0.0394
200.099	0.015
200.47	0.0087
200.841	0.0088
201.212	0.0137
201.582	0.0158
201.953	0.0171
202.323	0.0279
202.694	0.0142
203.064	0.0232
203.434	-0.0036
203.804	0.0199
204.174	0.0199
204.544	0.0333
204.914	0.0117
205.284	0.0002
205.653	0.0063
206.023	0.0177
206.393	0.0104
206.762	0.0088
207.131	0.0118
207.501	0.0192
207.87	0.0221
208.239	0.0188
208.608	0.0295
208.977	-0.0083
209.346	0.0049
209.715	0.023
210.083	0.0233
210.452	-0.0024
210.82	0.0222
211.189	0.011
211.557	0.021
211.925	0.0065
212.294	0.0168
212.662	0.0242
213.03	0.0304
213.398	0.03
213.766	0.0144
214.133	0.0351
214.501	0.021
214.869	0.0198
215.236	0.0224
215.604	0.0242
215.971	0.0445
216.338	0.0321
216.705	0.0059
217.072	0.0594
217.439	0.0454
217.806	0.0445
218.173	0.0556
218.54	0.0476
218.907	0.0596
219.273	0.0507
219.64	0.0629
220.006	0.0797
220.373	0.0821
220.739	0.1113
221.105	0.1409
221.471	0.152
221.837	0.1475
222.203	0.1748
222.569	0.1732
222.935	0.2036
223.3	0.2219
223.666	0.2508
224.031	0.2835
224.397	0.2856
224.762	0.3109
225.127	0.3409
225.493	0.3455
225.858	0.3787
226.223	0.4204
226.588	0.411
226.952	0.426
227.317	0.472
227.682	0.4836
228.046	0.4793
228.411	0.5169
228.775	0.5129
229.14	0.5279
229.504	0.5264
229.868	0.552
230.232	0.5576
230.596	0.5773
230.96	0.5942
231.324	0.5859
231.688	0.5764
232.052	0.601
232.415	0.5942
232.779	0.603
233.142	0.6067
233.505	0.5946
233.869	0.6038
234.232	0.6028
234.595	0.594
234.958	0.6061
235.321	0.609
235.684	0.6054
236.047	0.6001
236.409	0.5912
236.772	0.5987
237.134	0.5938
237.497	0.5794
237.859	0.5992
238.222	0.5799
238.584	0.5728
238.946	0.5784
239.308	0.5693
239.67	0.5722
240.032	0.5776
240.393	0.5642
240.755	0.5605
241.117	0.5597
241.478	0.5582
241.84	0.5615
242.201	0.5497
242.562	0.5472
242.924	0.5404
243.285	0.5325
243.646	0.5327
244.007	0.5285
244.368	0.5316
244.728	0.5319
245.089	0.5305
245.45	0.5202
245.81	0.5203
246.171	0.5192
246.531	0.5101
246.891	0.5125
247.252	0.5123
247.612	0.5105
247.972	0.5089
248.332	0.5017
248.692	0.5069
249.051	0.5049
249.411	0.5002
249.771	0.4954
250.13	0.4981
250.49	0.4942
250.849	0.497
251.208	0.4971
251.568	0.4968
251.927	0.4887
252.286	0.4929
252.645	0.4883
253.004	0.4917
253.363	0.4823
253.721	0.4872
254.08	0.4874
254.439	0.4841
254.797	0.4814
255.155	0.4853
255.514	0.4835
255.872	0.4819
256.23	0.4811
256.588	0.4843
256.946	0.4814
257.304	0.4751
257.662	0.4765
258.02	0.4761
258.377	0.4761
258.735	0.4738
259.093	0.4696
259.45	0.4654
259.807	0.4744
260.165	0.4684
260.522	0.4699
260.879	0.4675
261.236	0.4678
261.593	0.4609
261.95	0.4628
262.306	0.4643
262.663	0.4626
263.02	0.4572
263.376	0.4547
263.733	0.454
264.089	0.4514
264.445	0.4518
264.802	0.4485
265.158	0.4452
265.514	0.4442
265.87	0.4443
266.226	0.443
266.581	0.4429
266.937	0.4384
267.293	0.4407
267.648	0.4387
268.004	0.4317
268.359	0.4353
268.714	0.4275
269.07	0.427
269.425	0.426
269.78	0.4237
270.135	0.4231
270.49	0.4195
270.844	0.4167
271.199	0.4111
271.554	0.4102
271.908	0.4103
272.263	0.4079
272.617	0.409
272.972	0.4038
273.326	0.4005
273.68	0.3965
274.034	0.3958
274.388	0.3957
274.742	0.3929
275.096	0.387
275.45	0.3865
275.803	0.3843
276.157	0.3773
276.51	0.3755
276.864	0.3748
277.217	0.3721
277.571	0.3692
277.924	0.3634
278.277	0.3616
278.63	0.357
278.983	0.3529
279.336	0.3543
279.688	0.3492
280.041	0.3467
280.394	0.3411
280.746	0.3365
281.099	0.3366
281.451	0.332
281.803	0.3288
282.156	0.325
282.508	0.3209
282.86	0.3209
283.212	0.3176
283.564	0.3144
283.916	0.31
284.267	0.3045
284.619	0.3038
284.971	0.3001
285.322	0.2986
285.673	0.294
286.025	0.2899
286.376	0.2875
286.727	0.2833
287.078	0.2801
287.429	0.2783
287.78	0.2723
288.131	0.2734
288.482	0.2665
288.833	0.2633
289.183	0.263
289.534	0.2575
289.884	0.2551
290.235	0.2516
290.585	0.2473
290.935	0.2443
291.285	0.2427
291.635	0.2379
291.985	0.2364
292.335	0.2327
292.685	0.2303
293.035	0.2254
293.384	0.2243
293.734	0.2202
294.083	0.2185
294.433	0.216
294.782	0.213
295.131	0.2101
295.48	0.2064
295.829	0.2045
296.179	0.2009
296.527	0.1983
296.876	0.1944
297.225	0.1911
297.574	0.1872
297.922	0.1858
298.271	0.1823
298.619	0.1795
298.968	0.1776
299.316	0.1753
299.664	0.1732
300.012	0.1707
300.36	0.1678
300.708	0.1661
301.056	0.163
301.404	0.1613
301.752	0.1596
302.099	0.1568
302.447	0.1548
302.794	0.152
303.142	0.1499
303.489	0.1482
303.836	0.146
304.183	0.1443
304.531	0.143
304.878	0.1417
305.224	0.1395
305.571	0.1386
305.918	0.1369
306.265	0.1344
306.611	0.1335
306.958	0.1336
307.304	0.1311
307.651	0.1304
307.997	0.1279
308.343	0.1269
308.689	0.1262
309.035	0.1256
309.381	0.1245
309.727	0.1235
310.073	0.1234
310.419	0.1219
310.764	0.1208
311.11	0.12
311.455	0.1198
311.801	0.1194
312.146	0.1194
312.491	0.1184
312.837	0.1182
313.182	0.1165
313.527	0.1167
313.872	0.1167
314.216	0.1171
314.561	0.1165
314.906	0.1162
315.251	0.1168
315.595	0.1159
315.94	0.1162
316.284	0.1164
316.628	0.1167
316.972	0.1167
317.317	0.1165
317.661	0.1166
318.005	0.1167
318.348	0.1178
318.692	0.1175
319.036	0.118
319.38	0.1181
319.723	0.1179
320.067	0.1196
320.41	0.1197
320.754	0.1204
321.097	0.1201
321.44	0.1208
321.783	0.1223
322.126	0.123
322.469	0.1234
322.812	0.1243
323.155	0.1253
323.498	0.1254
323.84	0.1257
324.183	0.1268
324.525	0.1278
324.868	0.1293
325.21	0.1293
325.552	0.1303
325.894	0.1312
326.236	0.1319
326.578	0.1325
326.92	0.1338
327.262	0.1338
327.604	0.1357
327.946	0.1365
328.287	0.137
328.629	0.1384
328.97	0.1394
329.312	0.14
329.653	0.1419
329.994	0.1423
330.335	0.1431
330.676	0.1453
331.017	0.1455
331.358	0.1465
331.699	0.1476
332.04	0.1491
332.38	0.1497
332.721	0.1506
333.061	0.1509
333.402	0.1531
333.742	0.1534
334.083	0.154
334.423	0.1556
334.763	0.1569
335.103	0.1571
335.443	0.1577
335.783	0.1594
336.123	0.1595
336.462	0.1606
336.802	0.1608
337.141	0.1625
337.481	0.1629
337.82	0.1644
338.16	0.1645
338.499	0.1659
338.838	0.1669
339.177	0.1681
339.516	0.1678
339.855	0.1692
340.194	0.17
340.533	0.1697
340.872	0.1708
341.21	0.1717
341.549	0.1724
341.887	0.1728
342.226	0.1719
342.564	0.1734
342.902	0.1741
343.24	0.1742
343.578	0.1745
343.916	0.1741
344.254	0.1759
344.592	0.1756
344.93	0.1762
345.268	0.176
345.605	0.1762
345.943	0.1761
346.28	0.1768
346.618	0.1759
346.955	0.1768
347.292	0.1777
347.629	0.1772
347.966	0.177
348.303	0.1775
348.64	0.1772
348.977	0.177
349.314	0.1774
349.65	0.1771
349.987	0.1775
350.324	0.1768
350.66	0.1773
350.996	0.1771
351.333	0.1762
351.669	0.1763
352.005	0.1759
352.341	0.1753
352.677	0.175
353.013	0.1729
353.349	0.1737
353.685	0.1721
354.02	0.1714
354.356	0.1716
354.691	0.1706
355.027	0.1691
355.362	0.1689
355.697	0.1684
356.033	0.1677
356.368	0.1672
356.703	0.1658
357.038	0.1661
357.373	0.1641
357.707	0.1645
358.042	0.1636
358.377	0.1633
358.711	0.1628
359.046	0.1623
359.38	0.161
359.715	0.1606
360.049	0.1596
360.383	0.1581
360.717	0.1575
361.051	0.1563
361.385	0.1562
361.719	0.1548
362.053	0.154
362.387	0.1519
362.72	0.1511
363.054	0.1492
363.387	0.1488
363.721	0.1472
364.054	0.1468
364.387	0.1449
364.721	0.1434
365.054	0.1426
365.387	0.1418
365.72	0.1408
366.053	0.1383
366.385	0.138
366.718	0.1365
367.051	0.1353
367.383	0.1345
367.716	0.1345
368.048	0.1327
368.381	0.1325
368.713	0.1306
369.045	0.1304
369.377	0.1291
369.709	0.1279
370.041	0.1276
370.373	0.1258
370.705	0.1252
371.037	0.1238
371.368	0.1235
371.7	0.1216
372.031	0.1208
372.363	0.1196
372.694	0.1185
373.025	0.1163
373.356	0.1153
373.688	0.1139
374.019	0.1134
374.35	0.1114
374.68	0.1099
375.011	0.1081
375.342	0.1074
375.673	0.1061
376.003	0.1041
376.334	0.1031
376.664	0.1018
376.995	0.101
377.325	0.0998
377.655	0.0979
377.985	0.0972
378.315	0.096
378.645	0.0957
378.975	0.0946
379.305	0.093
379.635	0.093
379.964	0.0916
380.294	0.0911
380.623	0.0896
380.953	0.0887
381.282	0.0886
381.611	0.0869
381.941	0.0862
382.27	0.0853
382.599	0.0846
382.928	0.0832
383.257	0.0824
383.585	0.0818
383.914	0.0799
384.243	0.0786
384.571	0.0779
384.9	0.0772
385.228	0.0749
385.557	0.0744
385.885	0.0731
386.213	0.0725
386.541	0.0711
386.869	0.0696
387.197	0.0687
387.525	0.0677
387.853	0.0666
388.181	0.0656
388.508	0.0646
388.836	0.0637
389.164	0.0631
389.491	0.0613
389.818	0.0604
390.146	0.0603
390.473	0.0599
390.8	0.0591
391.127	0.0576
391.454	0.0571
391.781	0.0566
392.108	0.056
392.435	0.0546
392.761	0.0543
393.088	0.0536
393.415	0.0532
393.741	0.0532
394.067	0.053
394.394	0.0519
394.72	0.051
395.046	0.0498
395.372	0.0496
395.698	0.0487
396.024	0.0479
396.35	0.0476
396.676	0.047
397.001	0.0461
397.327	0.0455
397.653	0.0446
397.978	0.0443
398.303	0.0432
398.629	0.0428
398.954	0.0424
399.279	0.0422
399.604	0.0416
399.929	0.0414
400.254	0.0403
400.579	0.0397
400.904	0.0388
401.229	0.0392
401.553	0.0388
401.878	0.0386
402.202	0.038
402.527	0.0374
402.851	0.0379
403.175	0.0364
403.5	0.0367
403.824	0.0361
404.148	0.0364
404.472	0.0358
404.796	0.0358
405.119	0.0351
405.443	0.0349
405.767	0.0352
406.09	0.0349
406.414	0.0345
406.737	0.0351
407.061	0.0346
407.384	0.0342
407.707	0.0344
408.03	0.0334
408.353	0.033
408.676	0.0332
408.999	0.0329
409.322	0.0327
409.645	0.0332
409.968	0.0336
410.29	0.0326
410.613	0.0334
410.935	0.0322
411.258	0.0325
411.58	0.032
411.902	0.0326
412.224	0.0328
412.546	0.0321
412.868	0.0335
413.19	0.032
413.512	0.0317
413.834	0.0322
414.156	0.0327
414.477	0.0316
414.799	0.0324
415.121	0.0316
415.442	0.0317
415.763	0.0319
416.085	0.0319
416.406	0.0318
416.727	0.0323
417.048	0.0322
417.369	0.0319
417.69	0.0316
418.011	0.0318
418.331	0.0322
418.652	0.0315
418.973	0.0313
419.293	0.0319
419.614	0.0312
419.934	0.0323
420.254	0.0319
420.574	0.0308
420.895	0.0308
421.215	0.0311
421.535	0.0317
421.855	0.0309
422.174	0.0301
422.494	0.0308
422.814	0.0312
423.134	0.031
423.453	0.0314
423.773	0.0319
424.092	0.0316
424.411	0.0315
424.731	0.0309
425.05	0.0311
425.369	0.0312
425.688	0.0316
426.007	0.0313
426.326	0.0313
426.644	0.0311
426.963	0.0309
427.282	0.0309
427.6	0.0308
427.919	0.0309
428.237	0.0319
428.556	0.0317
428.874	0.0314
429.192	0.0312
429.51	0.0313
429.828	0.0316
430.146	0.0316
430.464	0.0311
430.782	0.0311
431.1	0.0305
431.418	0.0312
431.735	0.0305
432.053	0.0318
432.37	0.0311
432.688	0.0303
433.005	0.0305
433.322	0.032
433.639	0.0314
433.957	0.0313
434.274	0.0315
434.591	0.0316
434.907	0.0309
435.224	0.0309
435.541	0.0311
435.858	0.032
436.174	0.0311
436.491	0.0311
436.807	0.0305
437.124	0.0312
437.44	0.031
437.756	0.0314
438.072	0.0303
438.388	0.0306
438.704	0.0303
439.02	0.0304
439.336	0.0305
439.652	0.0307
439.968	0.0307
440.283	0.0308
440.599	0.0305
440.914	0.0303
441.23	0.03
441.545	0.0304
441.86	0.0303
442.175	0.0306
442.491	0.03
442.806	0.0296
443.121	0.0292
443.435	0.0298
443.75	0.0293
444.065	0.0297
444.38	0.0298
444.694	0.0296
445.009	0.0296
445.323	0.0301
445.638	0.0299
445.952	0.0293
446.266	0.0286
446.58	0.0279
446.894	0.0297
447.208	0.0287
447.522	0.0283
447.836	0.0294
448.15	0.0287
448.464	0.028
448.777	0.0288
449.091	0.0282
449.404	0.0284
449.718	0.028
450.031	0.0278
450.345	0.0282
450.658	0.0279
450.971	0.028
451.284	0.0279
451.597	0.0283
451.91	0.0274
452.223	0.0278
452.535	0.0276
452.848	0.0276
453.161	0.0273
453.473	0.0279
453.786	0.0275
454.098	0.027
454.411	0.0271
454.723	0.0272
455.035	0.027
455.347	0.0266
455.659	0.0271
455.971	0.0273
456.283	0.0272
456.595	0.027
456.907	0.0272
457.218	0.0266
457.53	0.026
457.841	0.0255
458.153	0.0258
458.464	0.0254
458.776	0.0259
459.087	0.0255
459.398	0.0252
459.709	0.0247
460.02	0.0259
460.331	0.0257
460.642	0.0247
460.953	0.0247
461.263	0.0252
461.574	0.0246
461.885	0.0253
462.195	0.0238
462.506	0.0247
462.816	0.0251
463.126	0.0237
463.437	0.0245
463.747	0.0235
464.057	0.0226
464.367	0.0223
464.677	0.0235
464.987	0.0227
465.296	0.0228
465.606	0.0225
465.916	0.022
466.225	0.022
466.535	0.0229
466.844	0.0231
467.154	0.023
467.463	0.0219
467.772	0.0218
468.081	0.022
468.39	0.0223
468.699	0.0217
469.008	0.0222
469.317	0.0214
469.626	0.0219
469.935	0.0209
470.243	0.0216
470.552	0.0212
470.86	0.0216
471.169	0.0203
471.477	0.0204
471.785	0.0199
472.093	0.0201
472.402	0.02
472.71	0.02
473.018	0.0196
473.326	0.02
473.633	0.0201
473.941	0.0192
474.249	0.0191
474.556	0.019
474.864	0.0189
475.171	0.0189
475.479	0.018
475.786	0.0189
476.094	0.0183
476.401	0.0185
476.708	0.0185
477.015	0.0179
477.322	0.0169
477.629	0.0166
477.936	0.0177
478.242	0.0171
478.549	0.0174
478.856	0.0177
479.162	0.0173
479.469	0.0168
479.775	0.0161
480.081	0.0153
480.388	0.0161
480.694	0.0165
481	0.0161
481.306	0.0153
481.612	0.0165
481.918	0.0167
482.224	0.0159
482.53	0.0159
482.835	0.0155
483.141	0.0156
483.446	0.0158
483.752	0.0149
484.057	0.0137
484.363	0.0146
484.668	0.0148
484.973	0.0136
485.278	0.0133
485.583	0.0127
485.888	0.0133
486.193	0.0114
486.498	0.0136
486.803	0.0132
487.107	0.0124
487.412	0.0112
487.717	0.0127
488.021	0.0132
488.325	0.0119
488.63	0.0124
488.934	0.0123
489.238	0.0119
489.542	0.0114
489.846	0.012
490.15	0.0121
490.454	0.0129
490.758	0.012
491.062	0.0121
491.366	0.0112
491.669	0.0106
491.973	0.0112
492.276	0.0113
492.58	0.01
492.883	0.0113
493.186	0.0106
493.489	0.0115
493.792	0.0096
494.096	0.0094
494.399	0.0103
494.701	0.0101
495.004	0.0094
495.307	0.0096
495.61	0.01
495.912	0.0101
496.215	0.0089
496.517	0.0102
496.82	0.0097
497.122	0.0092
497.424	0.0088
497.727	0.0092
498.029	0.0084
498.331	0.009
498.633	0.0081
498.935	0.0085
499.237	0.0093
499.538	0.0083
499.84	0.0084
500.142	0.0084
500.443	0.0078
500.745	0.0083
501.046	0.0076
501.348	0.0072
501.649	0.007
501.95	0.0084
502.251	0.0079
502.552	0.0069
502.853	0.0074
503.154	0.0078
503.455	0.0072
503.756	0.0074
504.057	0.007
504.357	0.0072
504.658	0.0062
504.958	0.0062
505.259	0.0066
505.559	0.0058
505.859	0.005
506.16	0.006
506.46	0.0064
506.76	0.0059
507.06	0.005
507.36	0.006
507.66	0.0058
507.96	0.0068
508.259	0.0057
508.559	0.0056
508.859	0.0063
509.158	0.0054
509.457	0.0053
509.757	0.0056
510.056	0.0056
510.355	0.0048
510.655	0.0051
510.954	0.0054
511.253	0.0053
511.552	0.0054
511.851	0.0052
512.149	0.004
512.448	0.0048
512.747	0.0039
513.045	0.0045
513.344	0.0049
513.642	0.0052
513.941	0.0051
514.239	0.0048
514.537	0.0052
514.836	0.0045
515.134	0.0044
515.432	0.0043
515.73	0.0043
516.028	0.0036
516.326	0.0037
516.623	0.0035
516.921	0.0024
517.219	0.0049
517.516	0.0044
517.814	0.0044
518.111	0.0048
518.409	0.0043
518.706	0.0046
519.003	0.0033
519.3	0.0036
519.597	0.0044
519.894	0.0036
520.191	0.0052
520.488	0.0047
520.785	0.0032
521.082	0.0047
521.378	0.0043
521.675	0.0031
521.971	0.003
522.268	0.004
522.564	0.0039
522.861	0.0038
523.157	0.0026
523.453	0.0042
523.749	0.0035
524.045	0.003
524.341	0.0033
524.637	0.0028
524.933	0.0044
525.229	0.0032
525.524	0.003
525.82	0.0037
526.115	0.0038
526.411	0.0039
526.706	0.0034
527.002	0.0033
527.297	0.002
527.592	0.0033
527.887	0.0023
528.182	0.0031
528.477	0.0037
528.772	0.0029
529.067	0.0026
529.362	0.0032
529.657	0.0036
529.951	0.003
530.246	0.0026
530.54	0.0031
530.835	0.0029
531.129	0.0037
531.423	0.0037
531.718	0.0026
532.012	0.0028
532.306	0.0033
532.6	0.0037
532.894	0.0036
533.188	0.0023
533.482	0.0025
533.775	0.0021
534.069	0.0034
534.363	0.0025
534.656	0.0025
534.95	0.0032
535.243	0.002
535.536	0.0024
535.83	0.0023
536.123	0.002
536.416	0.0022
536.709	0.0028
537.002	0.0037
537.295	0.0031
537.588	0.0028
537.881	0.0018
538.173	0.0019
538.466	0.002
538.759	0.0026
539.051	0.0029
539.344	0.0031
539.636	0.0018
539.928	0.0033
540.22	0.0016
540.513	0.0018
540.805	0.0025
541.097	0.0029
541.389	0.0022
541.681	0.0036
541.972	0.0022
542.264	0.0032
542.556	0.0024
542.847	0.0022
543.139	0.0022
543.431	0.0014
543.722	0.0014
544.013	0.0023
544.305	0.0026
544.596	0.002
544.887	0.0025
545.178	0.0033
545.469	0.0029
545.76	0.0025
546.051	0.003
546.342	0.002
546.632	0.003
546.923	0.0031
547.214	0.0018
547.504	0.0028
547.795	0.0026
548.085	0.0027
548.375	0.0032
548.666	0.0035
548.956	0.0029
549.246	0.0036
549.536	0.004
549.826	0.0042
550.116	0.0039
550.406	0.0037
550.695	0.003
550.985	0.0035
551.275	0.0046
551.564	0.0042
551.854	0.004
552.143	0.0041
552.433	0.0037
552.722	0.0037
553.011	0.0039
553.3	0.004
553.589	0.004
553.879	0.0041
554.167	0.0037
554.456	0.0026
554.745	0.0033
555.034	0.005
555.323	0.0027
555.611	0.0037
555.9	0.0034
556.188	0.0033
556.477	0.0027
556.765	0.0055
557.053	0.0035
557.342	0.0034
557.63	0.0034
557.918	0.0043
558.206	0.0045
558.494	0.0046
558.782	0.0041
559.069	0.0046
559.357	0.0037
559.645	0.0041
559.932	0.0038
560.22	0.0026
560.507	0.0016
560.795	0.002
561.082	0.0016
561.37	0.0034
561.657	0.0025
561.944	0.0026
562.231	0.003
562.518	0.0031
562.805	0.0038
563.092	0.0026
563.379	0.0032
563.665	0.0034
563.952	0.0039
564.239	0.004
564.525	0.0041
564.811	0.0039
565.098	0.0028
565.384	0.0032
565.67	0.0035
565.957	0.0034
566.243	0.0047
566.529	0.0037
566.815	0.0044
567.101	0.0037
567.387	0.0035
567.672	0.0028
567.958	0.0029
568.244	0.0019
568.529	0.0028
568.815	0.0029
569.1	0.003
569.386	0.0039
569.671	0.003
569.956	0.0018
570.242	0.0024
570.527	0.0026
570.812	0.0022
571.097	0.0018
571.382	0.001
571.666	0.0014
571.951	0.0028
572.236	0.0021
572.521	0.0035
572.805	0.0038
573.09	0.0028
573.374	0.0017
573.659	0.0021
573.943	0.0023
574.227	0.0024
574.511	0.0018
574.795	0.0028
575.079	0.0029
575.363	0.0025
575.647	0.003
575.931	0.0032
576.215	0.003
576.499	0.0012
576.782	0.0024
577.066	0.0024
577.349	0.0026
577.633	0.0024
577.916	0.0022
578.2	0.0029
578.483	0.0034
578.766	0.0036
579.049	0.0028
579.332	0.0035
579.615	0.0022
579.898	0.0017
580.181	0.003
580.464	0.0026
580.746	0.0026
581.029	0.0032
581.312	0.0007
581.594	-0.0001
581.877	0.0024
582.159	0.0039
582.441	0.0021
582.724	0.003
583.006	0.0035
583.288	0.0029
583.57	0.0031
583.852	0.0033
584.134	0.0033
584.416	0.0017
584.697	0.0029
584.979	0.0015
585.261	0.0016
585.542	0.0023
585.824	0.0034
586.105	0.0029
586.387	0.0031
586.668	0.0025
586.949	0.0037
587.231	0.0025
587.512	0.0029
587.793	0.0022
588.074	0.0032
588.355	0.003
588.636	0.0024
588.916	0.0033
589.197	0.0029
589.478	0.0031
589.758	0.0017
590.039	0.0014
590.319	0.0015
590.6	0.0022
590.88	0.002
591.16	0.0026
591.441	0.0038
591.721	0.0019
592.001	0.0021
592.281	0.0035
592.561	0.0025
592.841	0.0011
593.12	0.0021
593.4	0.0035
593.68	0.0024
593.959	0.0027
594.239	0.0036
594.518	0.0044
594.798	0.0031
595.077	0.0024
595.356	0.0034
595.636	0.003
595.915	0.0029
596.194	0.0032
596.473	0.0039
596.752	0.003
