Data from 03 0.4 mM K2Cr2O7 0.25 M BQDS 1 M H2SO4 5 min_Absorbance_0233.txt Node
Date: Wed Dec 15 12:55:13 EST 2021
User: kwabilab-user
Spectrometer: HDX00518
Trigger mode: 0
Integration Time (sec): 5.000000E-2
Scans to average: 50
Nonlinearity correction enabled: false
Boxcar width: 0
Storing dark spectrum: false
XAxis mode: Wavelengths
Number of Pixels in Spectrum: 2068
>>>>>Begin Spectral Data<<<<<
195.27	-0.2303
195.642	-0.0902
196.014	-0.2409
196.386	-0.1772
196.758	-0.1016
197.129	-0.0202
197.501	-0.0368
197.872	-0.0053
198.244	0.005
198.615	0.0249
198.986	0.0082
199.357	0.0186
199.728	0.0276
200.099	0.0112
200.47	0.0093
200.841	0.0048
201.212	0.0115
201.582	0.0153
201.953	0.0169
202.323	0.0185
202.694	-0.0082
203.064	0.002
203.434	-0.0157
203.804	-0.0026
204.174	-0.006
204.544	0.004
204.914	-0.0053
205.284	-0.0047
205.653	-0.0023
206.023	-0.0033
206.393	0.0146
206.762	-0.0047
207.131	0.0103
207.501	0.0175
207.87	0.0345
208.239	-0.0088
208.608	0.0075
208.977	-0.0011
209.346	-0.0128
209.715	-0.003
210.083	0.0162
210.452	0.0068
210.82	-0.0071
211.189	-0.0049
211.557	0.0152
211.925	0.0055
212.294	-0.0031
212.662	-0.0163
213.03	0.0001
213.398	-0.0065
213.766	-0.0153
214.133	0.0103
214.501	-0.0071
214.869	0.0021
215.236	-0.0122
215.604	0.006
215.971	0.0221
216.338	0.0235
216.705	0.0094
217.072	0.0285
217.439	0.0139
217.806	0.0092
218.173	0.0329
218.54	0.0296
218.907	0.0438
219.273	0.051
219.64	0.0802
220.006	0.0677
220.373	0.0742
220.739	0.0928
221.105	0.1227
221.471	0.0998
221.837	0.1554
222.203	0.1584
222.569	0.1665
222.935	0.1676
223.3	0.219
223.666	0.2241
224.031	0.2584
224.397	0.2969
224.762	0.2974
225.127	0.32
225.493	0.3265
225.858	0.3707
226.223	0.3915
226.588	0.4048
226.952	0.4198
227.317	0.4599
227.682	0.4806
228.046	0.4746
228.411	0.4851
228.775	0.5036
229.14	0.5081
229.504	0.5167
229.868	0.5253
230.232	0.5506
230.596	0.5676
230.96	0.5738
231.324	0.5635
231.688	0.571
232.052	0.5939
232.415	0.587
232.779	0.5861
233.142	0.5959
233.505	0.5952
233.869	0.5909
234.232	0.5854
234.595	0.591
234.958	0.6003
235.321	0.5908
235.684	0.5968
236.047	0.5911
236.409	0.5856
236.772	0.5789
237.134	0.579
237.497	0.5813
237.859	0.5807
238.222	0.5748
238.584	0.5651
238.946	0.5715
239.308	0.5671
239.67	0.5678
240.032	0.5583
240.393	0.5523
240.755	0.5466
241.117	0.5505
241.478	0.5479
241.84	0.5479
242.201	0.538
242.562	0.5319
242.924	0.5281
243.285	0.5212
243.646	0.5265
244.007	0.5244
244.368	0.5165
244.728	0.5177
245.089	0.5123
245.45	0.5075
245.81	0.505
246.171	0.5048
246.531	0.5031
246.891	0.4983
247.252	0.4916
247.612	0.5011
247.972	0.4968
248.332	0.4922
248.692	0.4912
249.051	0.4882
249.411	0.4876
249.771	0.4873
250.13	0.4866
250.49	0.4835
250.849	0.4836
251.208	0.4828
251.568	0.4767
251.927	0.482
252.286	0.4835
252.645	0.4756
253.004	0.4768
253.363	0.4762
253.721	0.4765
254.08	0.4719
254.439	0.4676
254.797	0.4672
255.155	0.4648
255.514	0.467
255.872	0.4676
256.23	0.4666
256.588	0.4648
256.946	0.4659
257.304	0.4673
257.662	0.4637
258.02	0.4626
258.377	0.4633
258.735	0.4581
259.093	0.4644
259.45	0.4584
259.807	0.4552
260.165	0.4559
260.522	0.4541
260.879	0.4484
261.236	0.4506
261.593	0.4481
261.95	0.45
262.306	0.451
262.663	0.4453
263.02	0.4442
263.376	0.4461
263.733	0.44
264.089	0.4413
264.445	0.4378
264.802	0.4327
265.158	0.4361
265.514	0.4361
265.87	0.4341
266.226	0.4304
266.581	0.4278
266.937	0.4268
267.293	0.4269
267.648	0.4237
268.004	0.4224
268.359	0.4211
268.714	0.4162
269.07	0.4171
269.425	0.4178
269.78	0.409
270.135	0.4061
270.49	0.406
270.844	0.4051
271.199	0.4014
271.554	0.4001
271.908	0.3983
272.263	0.3995
272.617	0.3967
272.972	0.3947
273.326	0.391
273.68	0.3874
274.034	0.3857
274.388	0.3838
274.742	0.3807
275.096	0.3751
275.45	0.3757
275.803	0.3714
276.157	0.3713
276.51	0.3639
276.864	0.3639
277.217	0.3624
277.571	0.3582
277.924	0.3547
278.277	0.3532
278.63	0.3486
278.983	0.3458
279.336	0.3467
279.688	0.3368
280.041	0.3355
280.394	0.3317
280.746	0.3316
281.099	0.3304
281.451	0.3239
281.803	0.3215
282.156	0.3173
282.508	0.3138
282.86	0.3125
283.212	0.3094
283.564	0.3049
283.916	0.2991
284.267	0.298
284.619	0.2984
284.971	0.2931
285.322	0.2909
285.673	0.2866
286.025	0.2815
286.376	0.2812
286.727	0.2759
287.078	0.2732
287.429	0.272
287.78	0.2656
288.131	0.2653
288.482	0.2607
288.833	0.257
289.183	0.2555
289.534	0.252
289.884	0.2499
290.235	0.246
290.585	0.2443
290.935	0.2403
291.285	0.2365
291.635	0.2336
291.985	0.2316
292.335	0.2278
292.685	0.2251
293.035	0.2219
293.384	0.2183
293.734	0.2159
294.083	0.2127
294.433	0.2104
294.782	0.2084
295.131	0.2033
295.48	0.2013
295.829	0.1984
296.179	0.1955
296.527	0.1929
296.876	0.1897
297.225	0.1869
297.574	0.1845
297.922	0.1818
298.271	0.1785
298.619	0.1753
298.968	0.1744
299.316	0.1716
299.664	0.1694
300.012	0.1664
300.36	0.1642
300.708	0.1619
301.056	0.1594
301.404	0.1568
301.752	0.1548
302.099	0.1522
302.447	0.1505
302.794	0.1484
303.142	0.1463
303.489	0.1448
303.836	0.143
304.183	0.141
304.531	0.1396
304.878	0.1376
305.224	0.1354
305.571	0.1342
305.918	0.1329
306.265	0.1297
306.611	0.1297
306.958	0.1291
307.304	0.1276
307.651	0.1264
307.997	0.125
308.343	0.1242
308.689	0.1233
309.035	0.1223
309.381	0.1209
309.727	0.1201
310.073	0.1193
310.419	0.1187
310.764	0.1177
311.11	0.1171
311.455	0.1165
311.801	0.1165
312.146	0.1147
312.491	0.1152
312.837	0.115
313.182	0.1135
313.527	0.114
313.872	0.1129
314.216	0.1134
314.561	0.1136
314.906	0.1129
315.251	0.1138
315.595	0.1131
315.94	0.1126
316.284	0.1135
316.628	0.1126
316.972	0.1134
317.317	0.1124
317.661	0.1131
318.005	0.114
318.348	0.1137
318.692	0.1144
319.036	0.1141
319.38	0.1151
319.723	0.115
320.067	0.1154
320.41	0.116
320.754	0.1173
321.097	0.1156
321.44	0.1183
321.783	0.1186
322.126	0.1196
322.469	0.1196
322.812	0.1206
323.155	0.1206
323.498	0.1214
323.84	0.1219
324.183	0.1229
324.525	0.1237
324.868	0.1255
325.21	0.1252
325.552	0.1262
325.894	0.1275
326.236	0.1278
326.578	0.129
326.92	0.1299
327.262	0.1302
327.604	0.1317
327.946	0.1324
328.287	0.1327
328.629	0.1343
328.97	0.1349
329.312	0.1357
329.653	0.1371
329.994	0.1377
330.335	0.1384
330.676	0.1407
331.017	0.1412
331.358	0.1427
331.699	0.1432
332.04	0.1447
332.38	0.1449
332.721	0.1458
333.061	0.1466
333.402	0.1477
333.742	0.1494
334.083	0.1501
334.423	0.1505
334.763	0.1519
335.103	0.1523
335.443	0.1536
335.783	0.1549
336.123	0.1548
336.462	0.1555
336.802	0.1564
337.141	0.1576
337.481	0.1583
337.82	0.1597
338.16	0.1605
338.499	0.1613
338.838	0.1617
339.177	0.1623
339.516	0.1635
339.855	0.1637
340.194	0.1646
340.533	0.1651
340.872	0.1658
341.21	0.1671
341.549	0.1668
341.887	0.1677
342.226	0.1674
342.564	0.1686
342.902	0.1694
343.24	0.1692
343.578	0.1701
343.916	0.1695
344.254	0.1707
344.592	0.1703
344.93	0.1709
345.268	0.1704
345.605	0.1707
345.943	0.1715
346.28	0.1718
346.618	0.171
346.955	0.1715
347.292	0.1721
347.629	0.1717
347.966	0.1717
348.303	0.1716
348.64	0.1717
348.977	0.1725
349.314	0.1718
349.65	0.1723
349.987	0.1726
350.324	0.1715
350.66	0.1722
350.996	0.1716
351.333	0.1714
351.669	0.1711
352.005	0.171
352.341	0.1703
352.677	0.1696
353.013	0.168
353.349	0.1677
353.685	0.1669
354.02	0.1666
354.356	0.1665
354.691	0.1652
355.027	0.1649
355.362	0.1637
355.697	0.1632
356.033	0.1632
356.368	0.1623
356.703	0.1619
357.038	0.1614
357.373	0.1603
357.707	0.1602
358.042	0.1585
358.377	0.1586
358.711	0.1582
359.046	0.1565
359.38	0.157
359.715	0.156
360.049	0.1549
360.383	0.1537
360.717	0.1524
361.051	0.1514
361.385	0.1515
361.719	0.1499
362.053	0.1497
362.387	0.1479
362.72	0.1467
363.054	0.1457
363.387	0.1442
363.721	0.144
364.054	0.1424
364.387	0.1408
364.721	0.1398
365.054	0.1388
365.387	0.1375
365.72	0.1367
366.053	0.1356
366.385	0.1338
366.718	0.1324
367.051	0.1317
367.383	0.1307
367.716	0.1303
368.048	0.129
368.381	0.1292
368.713	0.1269
369.045	0.1262
369.377	0.1257
369.709	0.1249
370.041	0.1234
370.373	0.1227
370.705	0.1216
371.037	0.12
371.368	0.12
371.7	0.1174
372.031	0.1166
372.363	0.1157
372.694	0.1146
373.025	0.1127
373.356	0.1127
373.688	0.1113
374.019	0.1098
374.35	0.1082
374.68	0.106
375.011	0.1049
375.342	0.1048
375.673	0.1029
376.003	0.1007
376.334	0.1003
376.664	0.0992
376.995	0.0978
377.325	0.0965
377.655	0.0953
377.985	0.0942
378.315	0.0929
378.645	0.0926
378.975	0.0915
379.305	0.0899
379.635	0.0903
379.964	0.0888
380.294	0.0884
380.623	0.0874
380.953	0.0857
381.282	0.0861
381.611	0.0844
381.941	0.0845
382.27	0.0829
382.599	0.0816
382.928	0.0811
383.257	0.0798
383.585	0.0792
383.914	0.0775
384.243	0.0765
384.571	0.0754
384.9	0.0744
385.228	0.0731
385.557	0.0722
385.885	0.0711
386.213	0.0699
386.541	0.0687
386.869	0.0677
387.197	0.0667
387.525	0.0658
387.853	0.0642
388.181	0.0638
388.508	0.0629
388.836	0.0618
389.164	0.0611
389.491	0.0601
389.818	0.0585
390.146	0.0584
390.473	0.0575
390.8	0.0574
391.127	0.0558
391.454	0.0554
391.781	0.0549
392.108	0.0538
392.435	0.0526
392.761	0.0524
393.088	0.0517
393.415	0.0513
393.741	0.0517
394.067	0.0513
394.394	0.0506
394.72	0.0492
395.046	0.048
395.372	0.0483
395.698	0.0473
396.024	0.0463
396.35	0.0461
396.676	0.0454
397.001	0.0449
397.327	0.0438
397.653	0.0431
397.978	0.0427
398.303	0.0415
398.629	0.0411
398.954	0.0412
399.279	0.0409
399.604	0.0397
399.929	0.0395
400.254	0.0394
400.579	0.0385
400.904	0.0382
401.229	0.0378
401.553	0.0375
401.878	0.0374
402.202	0.037
402.527	0.036
402.851	0.0363
403.175	0.0352
403.5	0.0355
403.824	0.0348
404.148	0.0345
404.472	0.0347
404.796	0.0346
405.119	0.0342
405.443	0.0342
405.767	0.0332
406.09	0.0338
406.414	0.0334
406.737	0.0334
407.061	0.0336
407.384	0.0327
407.707	0.0325
408.03	0.0323
408.353	0.0322
408.676	0.0321
408.999	0.0322
409.322	0.0321
409.645	0.0326
409.968	0.0322
410.29	0.032
410.613	0.0326
410.935	0.0319
411.258	0.0321
411.58	0.031
411.902	0.0312
412.224	0.0311
412.546	0.0314
412.868	0.0324
413.19	0.0312
413.512	0.0309
413.834	0.031
414.156	0.0318
414.477	0.0308
414.799	0.0317
415.121	0.0305
415.442	0.0309
415.763	0.0307
416.085	0.0314
416.406	0.0305
416.727	0.0307
417.048	0.0309
417.369	0.0309
417.69	0.0306
418.011	0.0306
418.331	0.0311
418.652	0.0309
418.973	0.0305
419.293	0.0304
419.614	0.0303
419.934	0.0315
420.254	0.0301
420.574	0.0295
420.895	0.0307
421.215	0.0305
421.535	0.0304
421.855	0.0294
422.174	0.0295
422.494	0.0301
422.814	0.0303
423.134	0.0301
423.453	0.0303
423.773	0.0311
424.092	0.0304
424.411	0.0303
424.731	0.0301
425.05	0.0302
425.369	0.0303
425.688	0.0307
426.007	0.0306
426.326	0.0312
426.644	0.03
426.963	0.0307
427.282	0.0302
427.6	0.0308
427.919	0.0303
428.237	0.0314
428.556	0.0308
428.874	0.0307
429.192	0.0305
429.51	0.0305
429.828	0.0305
430.146	0.0302
430.464	0.0298
430.782	0.0301
431.1	0.0297
431.418	0.0304
431.735	0.0299
432.053	0.0306
432.37	0.0305
432.688	0.0298
433.005	0.0292
433.322	0.031
433.639	0.0306
433.957	0.0302
434.274	0.0305
434.591	0.0306
434.907	0.03
435.224	0.0304
435.541	0.03
435.858	0.0305
436.174	0.0307
436.491	0.0301
436.807	0.0296
437.124	0.0297
437.44	0.0299
437.756	0.0305
438.072	0.0297
438.388	0.0293
438.704	0.0296
439.02	0.0301
439.336	0.0297
439.652	0.0298
439.968	0.03
440.283	0.0296
440.599	0.0305
440.914	0.0299
441.23	0.0298
441.545	0.0295
441.86	0.0295
442.175	0.03
442.491	0.0286
442.806	0.0291
443.121	0.0284
443.435	0.0288
443.75	0.0283
444.065	0.0283
444.38	0.0292
444.694	0.0284
445.009	0.0287
445.323	0.0293
445.638	0.0286
445.952	0.0284
446.266	0.028
446.58	0.0271
446.894	0.0284
447.208	0.0279
447.522	0.0276
447.836	0.028
448.15	0.0274
448.464	0.0274
448.777	0.0278
449.091	0.0274
449.404	0.0267
449.718	0.0276
450.031	0.0267
450.345	0.0276
450.658	0.027
450.971	0.0269
451.284	0.0266
451.597	0.0274
451.91	0.0271
452.223	0.0267
452.535	0.0266
452.848	0.0259
453.161	0.0261
453.473	0.0264
453.786	0.026
454.098	0.0264
454.411	0.0266
454.723	0.0269
455.035	0.0258
455.347	0.0254
455.659	0.0263
455.971	0.0255
456.283	0.0265
456.595	0.0262
456.907	0.0263
457.218	0.026
457.53	0.0253
457.841	0.025
458.153	0.0259
458.464	0.0242
458.776	0.025
459.087	0.0248
459.398	0.0254
459.709	0.0244
460.02	0.0247
460.331	0.0247
460.642	0.0243
460.953	0.0235
461.263	0.0245
461.574	0.0234
461.885	0.0245
462.195	0.0233
462.506	0.0237
462.816	0.0245
463.126	0.0233
463.437	0.0228
463.747	0.0232
464.057	0.022
464.367	0.021
464.677	0.0224
464.987	0.022
465.296	0.0216
465.606	0.0216
465.916	0.021
466.225	0.0218
466.535	0.0218
466.844	0.0217
467.154	0.0223
467.463	0.0218
467.772	0.0215
468.081	0.0209
468.39	0.021
468.699	0.0217
469.008	0.0212
469.317	0.0214
469.626	0.0212
469.935	0.0208
470.243	0.0208
470.552	0.0203
470.86	0.0208
471.169	0.0205
471.477	0.0199
471.785	0.0199
472.093	0.0192
472.402	0.0193
472.71	0.0194
473.018	0.0184
473.326	0.019
473.633	0.019
473.941	0.0182
474.249	0.0188
474.556	0.0178
474.864	0.0183
475.171	0.0184
475.479	0.0175
475.786	0.0183
476.094	0.0189
476.401	0.0175
476.708	0.0167
477.015	0.017
477.322	0.0164
477.629	0.0162
477.936	0.0166
478.242	0.0169
478.549	0.0165
478.856	0.0168
479.162	0.0163
479.469	0.0164
479.775	0.0157
480.081	0.0158
480.388	0.015
480.694	0.0155
481	0.0153
481.306	0.0162
481.612	0.016
481.918	0.0156
482.224	0.0154
482.53	0.0152
482.835	0.0151
483.141	0.0156
483.446	0.0154
483.752	0.0138
484.057	0.0134
484.363	0.0138
484.668	0.0142
484.973	0.0127
485.278	0.0125
485.583	0.0125
485.888	0.0134
486.193	0.0115
486.498	0.0131
486.803	0.0126
487.107	0.0117
487.412	0.0113
487.717	0.0121
488.021	0.0124
488.325	0.0119
488.63	0.0112
488.934	0.0113
489.238	0.0114
489.542	0.0119
489.846	0.0112
490.15	0.012
490.454	0.0126
490.758	0.0117
491.062	0.011
491.366	0.0103
491.669	0.0106
491.973	0.0111
492.276	0.0106
492.58	0.0098
492.883	0.0108
493.186	0.0101
493.489	0.0106
493.792	0.0095
494.096	0.0095
494.399	0.0097
494.701	0.0086
495.004	0.0086
495.307	0.009
495.61	0.009
495.912	0.0096
496.215	0.0092
496.517	0.0091
496.82	0.0092
497.122	0.0096
497.424	0.0097
497.727	0.0084
498.029	0.0081
498.331	0.0089
498.633	0.0082
498.935	0.0077
499.237	0.0088
499.538	0.0081
499.84	0.0076
500.142	0.0079
500.443	0.008
500.745	0.0083
501.046	0.0072
501.348	0.0073
501.649	0.0067
501.95	0.0075
502.251	0.0081
502.552	0.006
502.853	0.007
503.154	0.0077
503.455	0.0065
503.756	0.0071
504.057	0.0056
504.357	0.0063
504.658	0.0067
504.958	0.0058
505.259	0.0068
505.559	0.0058
505.859	0.006
506.16	0.0057
506.46	0.0056
506.76	0.0056
507.06	0.0052
507.36	0.0043
507.66	0.0066
507.96	0.007
508.259	0.0051
508.559	0.0054
508.859	0.0062
509.158	0.0046
509.457	0.0044
509.757	0.0045
510.056	0.0059
510.355	0.0053
510.655	0.0046
510.954	0.0039
511.253	0.0053
511.552	0.0051
511.851	0.0049
512.149	0.0048
512.448	0.0036
512.747	0.004
513.045	0.004
513.344	0.0048
513.642	0.0049
513.941	0.0046
514.239	0.004
514.537	0.0041
514.836	0.0046
515.134	0.0047
515.432	0.0045
515.73	0.0036
516.028	0.004
516.326	0.0023
516.623	0.0027
516.921	0.0032
517.219	0.0047
517.516	0.0029
517.814	0.0047
518.111	0.0043
518.409	0.0043
518.706	0.0048
519.003	0.0031
519.3	0.0032
519.597	0.0031
519.894	0.0033
520.191	0.0036
520.488	0.0041
520.785	0.0026
521.082	0.0041
521.378	0.0041
521.675	0.0031
521.971	0.0035
522.268	0.0038
522.564	0.0044
522.861	0.004
523.157	0.0035
523.453	0.0037
523.749	0.0026
524.045	0.003
524.341	0.0038
524.637	0.0029
524.933	0.0046
525.229	0.0037
525.524	0.0032
525.82	0.0038
526.115	0.0025
526.411	0.003
526.706	0.0028
527.002	0.0029
527.297	0.003
527.592	0.0034
527.887	0.0025
528.182	0.0018
528.477	0.0029
528.772	0.0027
529.067	0.003
529.362	0.0035
529.657	0.0033
529.951	0.0019
530.246	0.002
530.54	0.003
530.835	0.0024
531.129	0.0029
531.423	0.0026
531.718	0.0024
532.012	0.0032
532.306	0.0041
532.6	0.003
532.894	0.0023
533.188	0.0022
533.482	0.0034
533.775	0.0022
534.069	0.0039
534.363	0.0027
534.656	0.0021
534.95	0.0027
535.243	0.0026
535.536	0.0027
535.83	0.0021
536.123	0.0013
536.416	0.0024
536.709	0.0027
537.002	0.0031
537.295	0.002
537.588	0.0026
537.881	0.0017
538.173	0.0027
538.466	0.0017
538.759	0.0026
539.051	0.0027
539.344	0.0025
539.636	0.0033
539.928	0.0047
540.22	0.0015
540.513	0.003
540.805	0.0035
541.097	0.0029
541.389	0.002
541.681	0.0029
541.972	0.0014
542.264	0.0037
542.556	0.0025
542.847	0.0028
543.139	0.0024
543.431	0.0012
543.722	0.0015
544.013	0.0017
544.305	0.0025
544.596	0.0018
544.887	0.0024
545.178	0.0033
545.469	0.0031
545.76	0.0028
546.051	0.0033
546.342	0.003
546.632	0.0033
546.923	0.0017
547.214	0.0023
547.504	0.0027
547.795	0.0023
548.085	0.0032
548.375	0.0034
548.666	0.0041
548.956	0.003
549.246	0.0047
549.536	0.0044
549.826	0.0042
550.116	0.0042
550.406	0.0035
550.695	0.0043
550.985	0.0037
551.275	0.0036
551.564	0.0053
551.854	0.0045
552.143	0.0043
552.433	0.0041
552.722	0.0037
553.011	0.0039
553.3	0.0033
553.589	0.0042
553.879	0.0038
554.167	0.0038
554.456	0.0033
554.745	0.004
555.034	0.004
555.323	0.0031
555.611	0.0028
555.9	0.0027
556.188	0.0025
556.477	0.0026
556.765	0.0053
557.053	0.0036
557.342	0.003
557.63	0.0037
557.918	0.0039
558.206	0.0037
558.494	0.0039
558.782	0.0043
559.069	0.0047
559.357	0.0025
559.645	0.0044
559.932	0.0033
560.22	0.0033
560.507	0.0012
560.795	0.0024
561.082	0.0017
561.37	0.0027
561.657	0.0021
561.944	0.0022
562.231	0.0025
562.518	0.0041
562.805	0.0039
563.092	0.0024
563.379	0.003
563.665	0.0034
563.952	0.005
564.239	0.0042
564.525	0.0028
564.811	0.003
565.098	0.0044
565.384	0.0021
565.67	0.0038
565.957	0.0042
566.243	0.0048
566.529	0.0036
566.815	0.0041
567.101	0.0037
567.387	0.0038
567.672	0.0036
567.958	0.0025
568.244	0.0017
568.529	0.0032
568.815	0.003
569.1	0.002
569.386	0.003
569.671	0.0025
569.956	0.0023
570.242	0.0022
570.527	0.0018
570.812	0.0022
571.097	0.0019
571.382	0.0013
571.666	0.0013
571.951	0.0025
572.236	0.0019
572.521	0.0027
572.805	0.0033
573.09	0.0024
573.374	0.0014
573.659	0.0016
573.943	0.0016
574.227	0.0023
574.511	0.002
574.795	0.0029
575.079	0.0029
575.363	0.0022
575.647	0.0028
575.931	0.0033
576.215	0.0027
576.499	0.0016
576.782	0.0014
577.066	0.0024
577.349	0.0029
577.633	0.0026
577.916	0.0022
578.2	0.0022
578.483	0.0028
578.766	0.0031
579.049	0.0027
579.332	0.0034
579.615	0.0017
579.898	0.0015
580.181	0.0025
580.464	0.0023
580.746	0.0028
581.029	0.0026
581.312	0.0012
581.594	0.0009
581.877	0.002
582.159	0.003
582.441	0.0023
582.724	0.0026
583.006	0.0029
583.288	0.0027
583.57	0.0028
583.852	0.0032
584.134	0.0029
584.416	0.0017
584.697	0.0022
584.979	0.0013
585.261	0.0018
585.542	0.002
585.824	0.0027
586.105	0.0025
586.387	0.0026
586.668	0.0027
586.949	0.0036
587.231	0.0027
587.512	0.0028
587.793	0.0025
588.074	0.0029
588.355	0.0036
588.636	0.0026
588.916	0.0025
589.197	0.0023
589.478	0.0028
589.758	0.0027
590.039	0.0022
590.319	0.0017
590.6	0.0021
590.88	0.0022
591.16	0.002
591.441	0.0037
591.721	0.0026
592.001	0.0018
592.281	0.0021
592.561	0.0022
592.841	0.0019
593.12	0.0019
593.4	0.0029
593.68	0.0023
593.959	0.0028
594.239	0.0034
594.518	0.0041
594.798	0.0035
595.077	0.0026
595.356	0.0024
595.636	0.0026
595.915	0.0023
596.194	0.0028
