Data from 03 0.4 mM K2Cr2O7 0.25 M BQDS 1 M H2SO4 5 min_Absorbance_0050.txt Node
Date: Tue Dec 14 21:40:13 EST 2021
User: kwabilab-user
Spectrometer: HDX00518
Trigger mode: 0
Integration Time (sec): 5.000000E-2
Scans to average: 50
Nonlinearity correction enabled: false
Boxcar width: 0
Storing dark spectrum: false
XAxis mode: Wavelengths
Number of Pixels in Spectrum: 2068
>>>>>Begin Spectral Data<<<<<
195.27	-0.0554
195.642	0.0928
196.014	-0.1413
196.386	0.285
196.758	-0.0593
197.129	0.0011
197.501	-0.0138
197.872	0.015
198.244	0.0304
198.615	0.0401
198.986	0.0373
199.357	0.0332
199.728	0.0388
200.099	0.0384
200.47	0.0299
200.841	0.0248
201.212	0.0245
201.582	0.0455
201.953	0.0288
202.323	0.0344
202.694	0.0225
203.064	0.0112
203.434	0.0063
203.804	0.0186
204.174	0.0269
204.544	0.049
204.914	0.0177
205.284	0.0174
205.653	0.0113
206.023	0.0282
206.393	0.0129
206.762	0.0281
207.131	0.0298
207.501	0.0169
207.87	0.0472
208.239	0.0224
208.608	0.0405
208.977	0.0097
209.346	0.0117
209.715	0.0367
210.083	0.0273
210.452	0.0168
210.82	0.0394
211.189	0.0147
211.557	0.0351
211.925	0.0246
212.294	0.015
212.662	0.0216
213.03	0.0265
213.398	0.0194
213.766	0.0248
214.133	0.0413
214.501	0.029
214.869	0.0533
215.236	0.0275
215.604	0.0402
215.971	0.0444
216.338	0.0544
216.705	0.0208
217.072	0.0419
217.439	0.0379
217.806	0.0575
218.173	0.0696
218.54	0.0666
218.907	0.0741
219.273	0.0659
219.64	0.1005
220.006	0.0851
220.373	0.0835
220.739	0.1235
221.105	0.127
221.471	0.1374
221.837	0.1726
222.203	0.1759
222.569	0.1832
222.935	0.185
223.3	0.238
223.666	0.2438
224.031	0.285
224.397	0.318
224.762	0.312
225.127	0.3303
225.493	0.3751
225.858	0.3977
226.223	0.4209
226.588	0.4278
226.952	0.444
227.317	0.4837
227.682	0.4987
228.046	0.5118
228.411	0.5416
228.775	0.5525
229.14	0.5522
229.504	0.5708
229.868	0.5716
230.232	0.6042
230.596	0.6186
230.96	0.6099
231.324	0.6067
231.688	0.627
232.052	0.6317
232.415	0.638
232.779	0.636
233.142	0.6504
233.505	0.6563
233.869	0.6492
234.232	0.6507
234.595	0.6469
234.958	0.6591
235.321	0.6536
235.684	0.6596
236.047	0.6597
236.409	0.6415
236.772	0.6434
237.134	0.6393
237.497	0.6337
237.859	0.6487
238.222	0.6472
238.584	0.6337
238.946	0.6303
239.308	0.6392
239.67	0.6274
240.032	0.6315
240.393	0.6208
240.755	0.6294
241.117	0.6242
241.478	0.6151
241.84	0.6191
242.201	0.6179
242.562	0.6026
242.924	0.6054
243.285	0.6004
243.646	0.6023
244.007	0.5954
244.368	0.6048
244.728	0.599
245.089	0.5853
245.45	0.5893
245.81	0.5921
246.171	0.591
246.531	0.5775
246.891	0.5917
247.252	0.5787
247.612	0.5827
247.972	0.5844
248.332	0.5821
248.692	0.5838
249.051	0.5782
249.411	0.5785
249.771	0.5809
250.13	0.5756
250.49	0.578
250.849	0.5807
251.208	0.5771
251.568	0.5772
251.927	0.5757
252.286	0.5809
252.645	0.5738
253.004	0.5741
253.363	0.5747
253.721	0.5777
254.08	0.5771
254.439	0.568
254.797	0.5697
255.155	0.5736
255.514	0.5773
255.872	0.5704
256.23	0.5631
256.588	0.5694
256.946	0.5753
257.304	0.5682
257.662	0.5713
258.02	0.568
258.377	0.5652
258.735	0.5621
259.093	0.566
259.45	0.5644
259.807	0.5679
260.165	0.56
260.522	0.5629
260.879	0.5581
261.236	0.5611
261.593	0.5541
261.95	0.5555
262.306	0.5608
262.663	0.5571
263.02	0.5536
263.376	0.5514
263.733	0.5477
264.089	0.5525
264.445	0.5477
264.802	0.5474
265.158	0.5431
265.514	0.547
265.87	0.5418
266.226	0.537
266.581	0.5372
266.937	0.5358
267.293	0.5352
267.648	0.5295
268.004	0.5261
268.359	0.5246
268.714	0.5179
269.07	0.5194
269.425	0.5159
269.78	0.5155
270.135	0.5141
270.49	0.5107
270.844	0.5115
271.199	0.5069
271.554	0.4995
271.908	0.4981
272.263	0.5035
272.617	0.493
272.972	0.4906
273.326	0.4872
273.68	0.4825
274.034	0.4787
274.388	0.4801
274.742	0.477
275.096	0.4745
275.45	0.4666
275.803	0.4697
276.157	0.4611
276.51	0.4581
276.864	0.4551
277.217	0.4539
277.571	0.45
277.924	0.4413
278.277	0.441
278.63	0.4369
278.983	0.4302
279.336	0.429
279.688	0.426
280.041	0.423
280.394	0.4137
280.746	0.4112
281.099	0.4065
281.451	0.405
281.803	0.4006
282.156	0.3956
282.508	0.3917
282.86	0.388
283.212	0.3849
283.564	0.3808
283.916	0.3758
284.267	0.371
284.619	0.3693
284.971	0.3649
285.322	0.3632
285.673	0.3578
286.025	0.3533
286.376	0.3493
286.727	0.3461
287.078	0.3401
287.429	0.3399
287.78	0.334
288.131	0.3314
288.482	0.3264
288.833	0.3221
289.183	0.32
289.534	0.3146
289.884	0.3117
290.235	0.3098
290.585	0.3032
290.935	0.3014
291.285	0.2969
291.635	0.2926
291.985	0.2904
292.335	0.2874
292.685	0.2836
293.035	0.2792
293.384	0.2753
293.734	0.2718
294.083	0.2688
294.433	0.2666
294.782	0.263
295.131	0.2576
295.48	0.2562
295.829	0.2529
296.179	0.2491
296.527	0.2443
296.876	0.2425
297.225	0.2389
297.574	0.2356
297.922	0.2321
298.271	0.2291
298.619	0.2257
298.968	0.223
299.316	0.2197
299.664	0.2183
300.012	0.2145
300.36	0.211
300.708	0.2086
301.056	0.2057
301.404	0.2034
301.752	0.2007
302.099	0.1982
302.447	0.1957
302.794	0.1936
303.142	0.19
303.489	0.1869
303.836	0.1862
304.183	0.1843
304.531	0.1823
304.878	0.1792
305.224	0.1784
305.571	0.1752
305.918	0.1739
306.265	0.1713
306.611	0.171
306.958	0.1694
307.304	0.1675
307.651	0.1666
307.997	0.1648
308.343	0.1633
308.689	0.1633
309.035	0.1614
309.381	0.1597
309.727	0.1586
310.073	0.1586
310.419	0.1573
310.764	0.1567
311.11	0.1546
311.455	0.1544
311.801	0.1541
312.146	0.1533
312.491	0.1528
312.837	0.1528
313.182	0.1511
313.527	0.1511
313.872	0.151
314.216	0.1512
314.561	0.1503
314.906	0.1506
315.251	0.1506
315.595	0.1507
315.94	0.1502
316.284	0.1504
316.628	0.1506
316.972	0.1506
317.317	0.15
317.661	0.1506
318.005	0.151
318.348	0.1511
318.692	0.1513
319.036	0.1521
319.38	0.1519
319.723	0.1526
320.067	0.1528
320.41	0.1541
320.754	0.1545
321.097	0.1541
321.44	0.1556
321.783	0.1561
322.126	0.1569
322.469	0.1585
322.812	0.1586
323.155	0.1592
323.498	0.1604
323.84	0.1607
324.183	0.1623
324.525	0.1625
324.868	0.1644
325.21	0.1649
325.552	0.1657
325.894	0.1667
326.236	0.1671
326.578	0.1681
326.92	0.17
327.262	0.1702
327.604	0.1716
327.946	0.1722
328.287	0.173
328.629	0.1748
328.97	0.176
329.312	0.1767
329.653	0.178
329.994	0.1798
330.335	0.1805
330.676	0.1823
331.017	0.1828
331.358	0.1849
331.699	0.1857
332.04	0.1866
332.38	0.1879
332.721	0.1893
333.061	0.1892
333.402	0.1919
333.742	0.1926
334.083	0.1937
334.423	0.1943
334.763	0.1956
335.103	0.1963
335.443	0.1976
335.783	0.1988
336.123	0.1995
336.462	0.2006
336.802	0.2012
337.141	0.2025
337.481	0.2032
337.82	0.2045
338.16	0.2056
338.499	0.2066
338.838	0.2072
339.177	0.2083
339.516	0.2094
339.855	0.2105
340.194	0.2106
340.533	0.2107
340.872	0.2115
341.21	0.214
341.549	0.2135
341.887	0.2148
342.226	0.2144
342.564	0.2148
342.902	0.2161
343.24	0.2161
343.578	0.216
343.916	0.2165
344.254	0.2167
344.592	0.218
344.93	0.2181
345.268	0.2168
345.605	0.218
345.943	0.2173
346.28	0.219
346.618	0.2177
346.955	0.2183
347.292	0.2193
347.629	0.2193
347.966	0.218
348.303	0.2188
348.64	0.2185
348.977	0.2183
349.314	0.2186
349.65	0.2189
349.987	0.2189
350.324	0.2186
350.66	0.2175
350.996	0.2175
351.333	0.2174
351.669	0.2166
352.005	0.2161
352.341	0.2151
352.677	0.2144
353.013	0.2133
353.349	0.213
353.685	0.2121
354.02	0.2111
354.356	0.2103
354.691	0.2094
355.027	0.2091
355.362	0.2073
355.697	0.2071
356.033	0.2062
356.368	0.2049
356.703	0.2038
357.038	0.2048
357.373	0.2021
357.707	0.2013
358.042	0.2008
358.377	0.2
358.711	0.1994
359.046	0.198
359.38	0.1978
359.715	0.1968
360.049	0.1952
360.383	0.1942
360.717	0.1932
361.051	0.1925
361.385	0.1915
361.719	0.1894
362.053	0.1888
362.387	0.1866
362.72	0.1854
363.054	0.1839
363.387	0.1827
363.721	0.1817
364.054	0.1791
364.387	0.1775
364.721	0.1765
365.054	0.1751
365.387	0.1738
365.72	0.1727
366.053	0.171
366.385	0.1692
366.718	0.1677
367.051	0.1665
367.383	0.166
367.716	0.1648
368.048	0.1635
368.381	0.1622
368.713	0.1606
369.045	0.16
369.377	0.1589
369.709	0.1581
370.041	0.1567
370.373	0.1553
370.705	0.1538
371.037	0.1528
371.368	0.1511
371.7	0.1497
372.031	0.148
372.363	0.146
372.694	0.1457
373.025	0.143
373.356	0.1423
373.688	0.1404
374.019	0.1386
374.35	0.1366
374.68	0.1359
375.011	0.134
375.342	0.1329
375.673	0.1302
376.003	0.1283
376.334	0.1273
376.664	0.1261
376.995	0.125
377.325	0.1227
377.655	0.1212
377.985	0.1201
378.315	0.1194
378.645	0.1178
378.975	0.1171
379.305	0.1151
379.635	0.1153
379.964	0.113
380.294	0.1127
380.623	0.1117
380.953	0.1099
381.282	0.1097
381.611	0.1086
381.941	0.1074
382.27	0.1058
382.599	0.1051
382.928	0.1036
383.257	0.102
383.585	0.1012
383.914	0.0995
384.243	0.0981
384.571	0.0967
384.9	0.0958
385.228	0.0935
385.557	0.0923
385.885	0.0905
386.213	0.0906
386.541	0.0886
386.869	0.0878
387.197	0.0859
387.525	0.0845
387.853	0.0831
388.181	0.0819
388.508	0.0806
388.836	0.08
389.164	0.0791
389.491	0.0777
389.818	0.0755
390.146	0.0758
390.473	0.0748
390.8	0.0738
391.127	0.0723
391.454	0.0717
391.781	0.0704
392.108	0.0706
392.435	0.0689
392.761	0.0685
393.088	0.0678
393.415	0.0669
393.741	0.0669
394.067	0.0662
394.394	0.0649
394.72	0.0644
395.046	0.0633
395.372	0.062
395.698	0.0616
396.024	0.0605
396.35	0.0596
396.676	0.0589
397.001	0.0582
397.327	0.0577
397.653	0.0569
397.978	0.056
398.303	0.0549
398.629	0.0544
398.954	0.0536
399.279	0.0531
399.604	0.0524
399.929	0.0521
400.254	0.0506
400.579	0.0501
400.904	0.0498
401.229	0.0501
401.553	0.0497
401.878	0.0487
402.202	0.0487
402.527	0.0474
402.851	0.0476
403.175	0.0464
403.5	0.0461
403.824	0.0454
404.148	0.0455
404.472	0.0454
404.796	0.0452
405.119	0.0446
405.443	0.0444
405.767	0.0439
406.09	0.0438
406.414	0.0432
406.737	0.0437
407.061	0.0436
407.384	0.043
407.707	0.0427
408.03	0.0421
408.353	0.042
408.676	0.0421
408.999	0.0416
409.322	0.0418
409.645	0.0416
409.968	0.0416
410.29	0.0411
410.613	0.0412
410.935	0.0404
411.258	0.0405
411.58	0.0404
411.902	0.0403
412.224	0.0405
412.546	0.0407
412.868	0.0412
413.19	0.0409
413.512	0.0403
413.834	0.0408
414.156	0.0408
414.477	0.0396
414.799	0.0403
415.121	0.0395
415.442	0.0399
415.763	0.0398
416.085	0.0402
416.406	0.0397
416.727	0.0401
417.048	0.0399
417.369	0.0399
417.69	0.0388
418.011	0.0397
418.331	0.0397
418.652	0.0392
418.973	0.0392
419.293	0.0395
419.614	0.0388
419.934	0.0399
420.254	0.04
420.574	0.039
420.895	0.0389
421.215	0.0392
421.535	0.0395
421.855	0.0385
422.174	0.0387
422.494	0.0386
422.814	0.0392
423.134	0.0391
423.453	0.0392
423.773	0.0396
424.092	0.0396
424.411	0.039
424.731	0.0393
425.05	0.04
425.369	0.0396
425.688	0.0391
426.007	0.0389
426.326	0.0394
426.644	0.0386
426.963	0.0388
427.282	0.0393
427.6	0.0392
427.919	0.0396
428.237	0.04
428.556	0.0393
428.874	0.0387
429.192	0.0391
429.51	0.0388
429.828	0.0392
430.146	0.0398
430.464	0.0387
430.782	0.0389
431.1	0.0383
431.418	0.0388
431.735	0.0384
432.053	0.0383
432.37	0.0387
432.688	0.0382
433.005	0.0385
433.322	0.0399
433.639	0.0387
433.957	0.0388
434.274	0.039
434.591	0.0392
434.907	0.0389
435.224	0.0389
435.541	0.0392
435.858	0.0391
436.174	0.0386
436.491	0.0389
436.807	0.0385
437.124	0.0388
437.44	0.0383
437.756	0.0396
438.072	0.0382
438.388	0.0386
438.704	0.0381
439.02	0.0378
439.336	0.0376
439.652	0.0383
439.968	0.0382
440.283	0.0383
440.599	0.0385
440.914	0.0377
441.23	0.0387
441.545	0.0383
441.86	0.0382
442.175	0.0382
442.491	0.0382
442.806	0.0381
443.121	0.0372
443.435	0.0374
443.75	0.038
444.065	0.0382
444.38	0.0375
444.694	0.0371
445.009	0.037
445.323	0.0376
445.638	0.0367
445.952	0.0373
446.266	0.0366
446.58	0.0364
446.894	0.0364
447.208	0.0359
447.522	0.0361
447.836	0.037
448.15	0.0367
448.464	0.0361
448.777	0.0363
449.091	0.0358
449.404	0.0361
449.718	0.036
450.031	0.0356
450.345	0.0358
450.658	0.0352
450.971	0.0358
451.284	0.0357
451.597	0.0363
451.91	0.035
452.223	0.0353
452.535	0.035
452.848	0.035
453.161	0.0353
453.473	0.0348
453.786	0.0351
454.098	0.0346
454.411	0.0347
454.723	0.0348
455.035	0.034
455.347	0.0331
455.659	0.0338
455.971	0.0345
456.283	0.0343
456.595	0.0344
456.907	0.0344
457.218	0.0341
457.53	0.033
457.841	0.0331
458.153	0.0329
458.464	0.0326
458.776	0.0332
459.087	0.0331
459.398	0.0325
459.709	0.0322
460.02	0.0323
460.331	0.0328
460.642	0.0315
460.953	0.032
461.263	0.0321
461.574	0.0308
461.885	0.0323
462.195	0.0305
462.506	0.0313
462.816	0.032
463.126	0.0307
463.437	0.0304
463.747	0.0298
464.057	0.0296
464.367	0.0283
464.677	0.0303
464.987	0.0298
465.296	0.0297
465.606	0.0289
465.916	0.0284
466.225	0.029
466.535	0.0289
466.844	0.0293
467.154	0.0293
467.463	0.0288
467.772	0.0282
468.081	0.0286
468.39	0.0287
468.699	0.0281
469.008	0.0277
469.317	0.0278
469.626	0.0279
469.935	0.0272
470.243	0.0274
470.552	0.0268
470.86	0.0273
471.169	0.0265
471.477	0.0261
471.785	0.0256
472.093	0.0255
472.402	0.0252
472.71	0.0258
473.018	0.0242
473.326	0.0254
473.633	0.0258
473.941	0.0248
474.249	0.0248
474.556	0.0253
474.864	0.0249
475.171	0.0245
475.479	0.0242
475.786	0.0244
476.094	0.0233
476.401	0.0234
476.708	0.023
477.015	0.0234
477.322	0.0221
477.629	0.0217
477.936	0.0233
478.242	0.0226
478.549	0.0224
478.856	0.0227
479.162	0.0223
479.469	0.0219
479.775	0.0212
480.081	0.0204
480.388	0.0204
480.694	0.0213
481	0.0206
481.306	0.0204
481.612	0.0211
481.918	0.0213
482.224	0.021
482.53	0.0207
482.835	0.0197
483.141	0.0202
483.446	0.0204
483.752	0.019
484.057	0.0195
484.363	0.0194
484.668	0.02
484.973	0.0183
485.278	0.0176
485.583	0.0173
485.888	0.0181
486.193	0.0171
486.498	0.0179
486.803	0.0181
487.107	0.0164
487.412	0.0166
487.717	0.0169
488.021	0.0172
488.325	0.0169
488.63	0.0168
488.934	0.0163
489.238	0.0161
489.542	0.0162
489.846	0.0163
490.15	0.0163
490.454	0.0168
490.758	0.0157
491.062	0.0156
491.366	0.0154
491.669	0.0152
491.973	0.015
492.276	0.0149
492.58	0.0147
492.883	0.015
493.186	0.0146
493.489	0.0151
493.792	0.0134
494.096	0.0137
494.399	0.0137
494.701	0.0135
495.004	0.0124
495.307	0.0133
495.61	0.0134
495.912	0.0143
496.215	0.0133
496.517	0.0135
496.82	0.0124
497.122	0.0125
497.424	0.0135
497.727	0.0121
498.029	0.0116
498.331	0.0121
498.633	0.0118
498.935	0.012
499.237	0.0123
499.538	0.0111
499.84	0.0117
500.142	0.0109
500.443	0.0105
500.745	0.0109
501.046	0.0111
501.348	0.0098
501.649	0.0096
501.95	0.0105
502.251	0.0108
502.552	0.0096
502.853	0.011
503.154	0.011
503.455	0.0102
503.756	0.0101
504.057	0.0097
504.357	0.0099
504.658	0.0093
504.958	0.0095
505.259	0.0097
505.559	0.0089
505.859	0.0084
506.16	0.0091
506.46	0.0088
506.76	0.0083
507.06	0.008
507.36	0.0082
507.66	0.0086
507.96	0.0092
508.259	0.0075
508.559	0.0079
508.859	0.0084
509.158	0.0081
509.457	0.007
509.757	0.0078
510.056	0.0066
510.355	0.0076
510.655	0.0067
510.954	0.007
511.253	0.0068
511.552	0.0076
511.851	0.0072
512.149	0.0076
512.448	0.007
512.747	0.0066
513.045	0.0056
513.344	0.007
513.642	0.0065
513.941	0.0069
514.239	0.0064
514.537	0.0068
514.836	0.0058
515.134	0.0063
515.432	0.0059
515.73	0.0065
516.028	0.0065
516.326	0.0048
516.623	0.0047
516.921	0.0049
517.219	0.0064
517.516	0.0057
517.814	0.0061
518.111	0.0048
518.409	0.0059
518.706	0.0061
519.003	0.0053
519.3	0.0048
519.597	0.0057
519.894	0.0049
520.191	0.0066
520.488	0.0062
520.785	0.0049
521.082	0.0058
521.378	0.0054
521.675	0.0046
521.971	0.0049
522.268	0.0048
522.564	0.0056
522.861	0.0059
523.157	0.0049
523.453	0.0051
523.749	0.0043
524.045	0.0044
524.341	0.0046
524.637	0.0042
524.933	0.0047
525.229	0.0055
525.524	0.0047
525.82	0.0048
526.115	0.0053
526.411	0.0051
526.706	0.005
527.002	0.0046
527.297	0.0046
527.592	0.0048
527.887	0.0039
528.182	0.0032
528.477	0.0037
528.772	0.0038
529.067	0.0043
529.362	0.0046
529.657	0.0036
529.951	0.0034
530.246	0.0032
530.54	0.0044
530.835	0.0039
531.129	0.0045
531.423	0.004
531.718	0.0031
532.012	0.0029
532.306	0.0039
532.6	0.0029
532.894	0.0036
533.188	0.0032
533.482	0.0034
533.775	0.0026
534.069	0.0033
534.363	0.0034
534.656	0.0031
534.95	0.0035
535.243	0.0029
535.536	0.002
535.83	0.003
536.123	0.0026
536.416	0.0029
536.709	0.0032
537.002	0.0035
537.295	0.0035
537.588	0.0035
537.881	0.0032
538.173	0.0038
538.466	0.0036
538.759	0.0028
539.051	0.0038
539.344	0.0034
539.636	0.0034
539.928	0.004
540.22	0.0026
540.513	0.0035
540.805	0.0034
541.097	0.0034
541.389	0.0024
541.681	0.0032
541.972	0.0022
542.264	0.003
542.556	0.0031
542.847	0.002
543.139	0.0025
543.431	0.0029
543.722	0.0028
544.013	0.0022
544.305	0.0024
544.596	0.003
544.887	0.0037
545.178	0.004
545.469	0.0038
545.76	0.0033
546.051	0.0033
546.342	0.0027
546.632	0.0025
546.923	0.0026
547.214	0.0029
547.504	0.0035
547.795	0.0023
548.085	0.003
548.375	0.0034
548.666	0.0044
548.956	0.0031
549.246	0.0043
549.536	0.0039
549.826	0.0042
550.116	0.0038
550.406	0.0035
550.695	0.0039
550.985	0.0032
551.275	0.004
551.564	0.0054
551.854	0.0039
552.143	0.003
552.433	0.0042
552.722	0.0028
553.011	0.0038
553.3	0.0042
553.589	0.0048
553.879	0.0035
554.167	0.0038
554.456	0.0029
554.745	0.0041
555.034	0.0055
555.323	0.0036
555.611	0.004
555.9	0.0031
556.188	0.0031
556.477	0.0034
556.765	0.0038
557.053	0.0043
557.342	0.0035
557.63	0.0039
557.918	0.0039
558.206	0.0044
558.494	0.0043
558.782	0.0031
559.069	0.0043
559.357	0.0042
559.645	0.0049
559.932	0.0036
560.22	0.0039
560.507	0.0025
560.795	0.0029
561.082	0.0016
561.37	0.0036
561.657	0.0029
561.944	0.0034
562.231	0.003
562.518	0.0039
562.805	0.0037
563.092	0.0031
563.379	0.0035
563.665	0.0039
563.952	0.005
564.239	0.0048
564.525	0.0036
564.811	0.0043
565.098	0.004
565.384	0.0037
565.67	0.0037
565.957	0.0028
566.243	0.0034
566.529	0.0038
566.815	0.0046
567.101	0.0031
567.387	0.0035
567.672	0.003
567.958	0.0029
568.244	0.0024
568.529	0.002
568.815	0.0032
569.1	0.003
569.386	0.0042
569.671	0.0027
569.956	0.0028
570.242	0.003
570.527	0.0024
570.812	0.0028
571.097	0.003
571.382	0.0019
571.666	0.0026
571.951	0.0023
572.236	0.003
572.521	0.0034
572.805	0.004
573.09	0.0034
573.374	0.0021
573.659	0.0028
573.943	0.0024
574.227	0.0031
574.511	0.0035
574.795	0.0032
575.079	0.0038
575.363	0.003
575.647	0.0024
575.931	0.0031
576.215	0.0031
576.499	0.0023
576.782	0.0025
577.066	0.0026
577.349	0.0026
577.633	0.0033
577.916	0.0025
578.2	0.0031
578.483	0.0032
578.766	0.0039
579.049	0.0037
579.332	0.0031
579.615	0.003
579.898	0.0027
580.181	0.0029
580.464	0.0036
580.746	0.0028
581.029	0.0026
581.312	0.0021
581.594	0.0019
581.877	0.0027
582.159	0.0038
582.441	0.0024
582.724	0.0027
583.006	0.0033
583.288	0.0029
583.57	0.0031
583.852	0.0038
584.134	0.0039
584.416	0.0024
584.697	0.003
584.979	0.0027
585.261	0.0026
585.542	0.0031
585.824	0.0038
586.105	0.0024
586.387	0.0034
586.668	0.0034
586.949	0.0029
587.231	0.0031
587.512	0.003
587.793	0.0027
588.074	0.0023
588.355	0.0029
588.636	0.0032
588.916	0.0031
589.197	0.002
589.478	0.0024
589.758	0.0028
590.039	0.0022
590.319	0.0027
590.6	0.0023
590.88	0.0023
591.16	0.0019
591.441	0.0029
591.721	0.0015
592.001	0.0016
592.281	0.0031
592.561	0.0029
592.841	0.0028
593.12	0.0023
593.4	0.0034
593.68	0.003
593.959	0.0025
594.239	0.0042
594.518	0.0039
594.798	0.0032
595.077	0.003
595.356	0.0029
595.636	0.0033
595.915	0.0028
596.194	0.0038
596.473	0.0038
596.752	0.0034
597.031	0.003
