Data from 03 0.4 mM K2Cr2O7 0.25 M BQDS 1 M H2SO4 5 min_Absorbance_0135.txt Node
Date: Wed Dec 15 04:45:12 EST 2021
User: kwabilab-user
Spectrometer: HDX00518
Trigger mode: 0
Integration Time (sec): 5.000000E-2
Scans to average: 50
Nonlinearity correction enabled: false
Boxcar width: 0
Storing dark spectrum: false
XAxis mode: Wavelengths
Number of Pixels in Spectrum: 2068
>>>>>Begin Spectral Data<<<<<
195.27	-0.0162
195.642	0.0141
196.014	-0.1369
196.386	0.111
196.758	-0.0744
197.129	-0.0014
197.501	-0.0296
197.872	0.0214
198.244	0.0059
198.615	0.0374
198.986	0.034
199.357	0.0273
199.728	0.0283
200.099	0.0131
200.47	0.0289
200.841	0.0277
201.212	0.0268
201.582	0.0337
201.953	0.0225
202.323	0.0319
202.694	0.0111
203.064	0.0111
203.434	0.0047
203.804	0.0114
204.174	0.0167
204.544	0.016
204.914	0.0018
205.284	0.0153
205.653	0.0059
206.023	0.017
206.393	0.0214
206.762	0.0302
207.131	0.0264
207.501	0.0069
207.87	0.0238
208.239	0.0162
208.608	0.0124
208.977	0.0094
209.346	0.017
209.715	0.0247
210.083	0.033
210.452	0.0154
210.82	0.0228
211.189	0.0158
211.557	0.0122
211.925	0.0219
212.294	0.0331
212.662	0.0271
213.03	0.0123
213.398	0.0162
213.766	0.0115
214.133	0.0282
214.501	-0.0094
214.869	0.0062
215.236	0.0029
215.604	0.0437
215.971	0.0537
216.338	0.0262
216.705	0.0252
217.072	0.0427
217.439	0.0381
217.806	0.0274
218.173	0.0683
218.54	0.051
218.907	0.0584
219.273	0.0632
219.64	0.0772
220.006	0.074
220.373	0.0942
220.739	0.1044
221.105	0.1102
221.471	0.1167
221.837	0.1467
222.203	0.1821
222.569	0.1645
222.935	0.1923
223.3	0.2154
223.666	0.2568
224.031	0.2808
224.397	0.2965
224.762	0.3118
225.127	0.3488
225.493	0.3412
225.858	0.3769
226.223	0.411
226.588	0.428
226.952	0.4538
227.317	0.4622
227.682	0.4808
228.046	0.4646
228.411	0.5118
228.775	0.5133
229.14	0.533
229.504	0.5379
229.868	0.5488
230.232	0.5674
230.596	0.5787
230.96	0.6034
231.324	0.584
231.688	0.5953
232.052	0.6205
232.415	0.5954
232.779	0.6067
233.142	0.6238
233.505	0.6228
233.869	0.6175
234.232	0.6153
234.595	0.6264
234.958	0.6218
235.321	0.621
235.684	0.6195
236.047	0.6096
236.409	0.6014
236.772	0.6053
237.134	0.6091
237.497	0.5995
237.859	0.6158
238.222	0.6077
238.584	0.5947
238.946	0.5834
239.308	0.5894
239.67	0.5891
240.032	0.5811
240.393	0.5799
240.755	0.5727
241.117	0.5848
241.478	0.5771
241.84	0.5723
242.201	0.5662
242.562	0.5595
242.924	0.5608
243.285	0.5499
243.646	0.549
244.007	0.5492
244.368	0.5513
244.728	0.5433
245.089	0.549
245.45	0.545
245.81	0.5335
246.171	0.536
246.531	0.5381
246.891	0.5295
247.252	0.5283
247.612	0.5449
247.972	0.5311
248.332	0.5287
248.692	0.5269
249.051	0.5241
249.411	0.5241
249.771	0.5194
250.13	0.5227
250.49	0.5222
250.849	0.5189
251.208	0.5169
251.568	0.5203
251.927	0.5201
252.286	0.5212
252.645	0.5125
253.004	0.5173
253.363	0.5119
253.721	0.5138
254.08	0.511
254.439	0.5152
254.797	0.506
255.155	0.51
255.514	0.511
255.872	0.51
256.23	0.5101
256.588	0.5056
256.946	0.5081
257.304	0.5029
257.662	0.5032
258.02	0.5026
258.377	0.5003
258.735	0.4981
259.093	0.499
259.45	0.5025
259.807	0.5055
260.165	0.5004
260.522	0.4969
260.879	0.4952
261.236	0.4969
261.593	0.4946
261.95	0.4913
262.306	0.4925
262.663	0.4851
263.02	0.4888
263.376	0.4851
263.733	0.4846
264.089	0.4855
264.445	0.4841
264.802	0.4784
265.158	0.4768
265.514	0.4788
265.87	0.4706
266.226	0.4746
266.581	0.4732
266.937	0.4686
267.293	0.4695
267.648	0.4668
268.004	0.4639
268.359	0.4652
268.714	0.4544
269.07	0.4587
269.425	0.4533
269.78	0.4508
270.135	0.4478
270.49	0.4469
270.844	0.4473
271.199	0.4445
271.554	0.4394
271.908	0.4386
272.263	0.4336
272.617	0.4336
272.972	0.4285
273.326	0.4263
273.68	0.4205
274.034	0.4207
274.388	0.4171
274.742	0.4176
275.096	0.4142
275.45	0.409
275.803	0.4074
276.157	0.4059
276.51	0.401
276.864	0.3991
277.217	0.3963
277.571	0.3923
277.924	0.3881
278.277	0.3832
278.63	0.3786
278.983	0.3788
279.336	0.3733
279.688	0.3714
280.041	0.3637
280.394	0.361
280.746	0.3585
281.099	0.3571
281.451	0.3548
281.803	0.3476
282.156	0.3472
282.508	0.3397
282.86	0.3365
283.212	0.3336
283.564	0.3291
283.916	0.3249
284.267	0.3226
284.619	0.3209
284.971	0.3181
285.322	0.3148
285.673	0.3124
286.025	0.3054
286.376	0.3034
286.727	0.2998
287.078	0.2968
287.429	0.2952
287.78	0.2883
288.131	0.2881
288.482	0.2824
288.833	0.278
289.183	0.274
289.534	0.2717
289.884	0.2708
290.235	0.2664
290.585	0.2632
290.935	0.2593
291.285	0.2568
291.635	0.2537
291.985	0.2509
292.335	0.2482
292.685	0.2439
293.035	0.2397
293.384	0.2376
293.734	0.2344
294.083	0.2307
294.433	0.2279
294.782	0.2264
295.131	0.2211
295.48	0.2185
295.829	0.215
296.179	0.213
296.527	0.2089
296.876	0.2061
297.225	0.2025
297.574	0.1998
297.922	0.1981
298.271	0.1943
298.619	0.1915
298.968	0.1899
299.316	0.1873
299.664	0.1849
300.012	0.1816
300.36	0.1786
300.708	0.1756
301.056	0.1743
301.404	0.172
301.752	0.1689
302.099	0.1672
302.447	0.1643
302.794	0.1629
303.142	0.1606
303.489	0.159
303.836	0.1561
304.183	0.155
304.531	0.1537
304.878	0.1515
305.224	0.1494
305.571	0.1475
305.918	0.1459
306.265	0.1438
306.611	0.1425
306.958	0.1422
307.304	0.141
307.651	0.1393
307.997	0.1372
308.343	0.1365
308.689	0.136
309.035	0.1346
309.381	0.1338
309.727	0.1328
310.073	0.1322
310.419	0.1318
310.764	0.1307
311.11	0.129
311.455	0.1298
311.801	0.1282
312.146	0.1279
312.491	0.1279
312.837	0.1275
313.182	0.1266
313.527	0.1259
313.872	0.1256
314.216	0.1254
314.561	0.1255
314.906	0.1254
315.251	0.1255
315.595	0.1257
315.94	0.1254
316.284	0.1253
316.628	0.1251
316.972	0.1263
317.317	0.1256
317.661	0.1266
318.005	0.1267
318.348	0.1264
318.692	0.1267
319.036	0.1268
319.38	0.1279
319.723	0.1274
320.067	0.1281
320.41	0.1296
320.754	0.1298
321.097	0.1296
321.44	0.1306
321.783	0.1323
322.126	0.1326
322.469	0.1329
322.812	0.1334
323.155	0.1346
323.498	0.1352
323.84	0.1356
324.183	0.1372
324.525	0.1383
324.868	0.1393
325.21	0.1394
325.552	0.1408
325.894	0.1415
326.236	0.142
326.578	0.1437
326.92	0.1443
327.262	0.1447
327.604	0.1467
327.946	0.147
328.287	0.1478
328.629	0.1488
328.97	0.1499
329.312	0.1512
329.653	0.1514
329.994	0.1532
330.335	0.1543
330.676	0.1557
331.017	0.1569
331.358	0.1575
331.699	0.1592
332.04	0.1602
332.38	0.1612
332.721	0.1622
333.061	0.1633
333.402	0.1642
333.742	0.1652
334.083	0.166
334.423	0.1672
334.763	0.1681
335.103	0.1694
335.443	0.1701
335.783	0.1712
336.123	0.1715
336.462	0.1729
336.802	0.1736
337.141	0.1746
337.481	0.1757
337.82	0.1765
338.16	0.1777
338.499	0.1785
338.838	0.1796
339.177	0.1802
339.516	0.1806
339.855	0.1823
340.194	0.1829
340.533	0.1828
340.872	0.1832
341.21	0.1848
341.549	0.1851
341.887	0.1859
342.226	0.186
342.564	0.1865
342.902	0.1866
343.24	0.1875
343.578	0.1879
343.916	0.1879
344.254	0.1878
344.592	0.189
344.93	0.1894
345.268	0.1885
345.605	0.1894
345.943	0.1897
346.28	0.1895
346.618	0.189
346.955	0.1892
347.292	0.1905
347.629	0.1896
347.966	0.1897
348.303	0.1904
348.64	0.1901
348.977	0.1901
349.314	0.1907
349.65	0.1898
349.987	0.1902
350.324	0.1894
350.66	0.1903
350.996	0.1897
351.333	0.189
351.669	0.1891
352.005	0.1887
352.341	0.1879
352.677	0.187
353.013	0.1865
353.349	0.1855
353.685	0.1845
354.02	0.1837
354.356	0.1839
354.691	0.1823
355.027	0.1815
355.362	0.1812
355.697	0.1808
356.033	0.1803
356.368	0.1789
356.703	0.1783
357.038	0.1778
357.373	0.1758
357.707	0.176
358.042	0.1752
358.377	0.1743
358.711	0.1739
359.046	0.173
359.38	0.1723
359.715	0.1716
360.049	0.1703
360.383	0.1697
360.717	0.1682
361.051	0.167
361.385	0.1667
361.719	0.1649
362.053	0.1654
362.387	0.1624
362.72	0.1622
363.054	0.1606
363.387	0.1591
363.721	0.157
364.054	0.1563
364.387	0.1553
364.721	0.1535
365.054	0.1525
365.387	0.1512
365.72	0.1502
366.053	0.1491
366.385	0.1475
366.718	0.1466
367.051	0.1453
367.383	0.1437
367.716	0.1435
368.048	0.1421
368.381	0.1416
368.713	0.1397
369.045	0.1392
369.377	0.1384
369.709	0.1377
370.041	0.1364
370.373	0.135
370.705	0.1337
371.037	0.1325
371.368	0.1313
371.7	0.1301
372.031	0.1292
372.363	0.1278
372.694	0.1264
373.025	0.125
373.356	0.1238
373.688	0.1219
374.019	0.1213
374.35	0.1194
374.68	0.1176
375.011	0.116
375.342	0.1148
375.673	0.1137
376.003	0.1112
376.334	0.1112
376.664	0.1089
376.995	0.1082
377.325	0.1065
377.655	0.1051
377.985	0.1038
378.315	0.1035
378.645	0.1021
378.975	0.1016
379.305	0.0995
379.635	0.0999
379.964	0.0979
380.294	0.0979
380.623	0.0965
380.953	0.0953
381.282	0.0942
381.611	0.0941
381.941	0.0934
382.27	0.0913
382.599	0.0907
382.928	0.0894
383.257	0.0888
383.585	0.0876
383.914	0.0854
384.243	0.0841
384.571	0.0836
384.9	0.0828
385.228	0.081
385.557	0.08
385.885	0.0783
386.213	0.078
386.541	0.0761
386.869	0.0751
387.197	0.074
387.525	0.0728
387.853	0.0718
388.181	0.0704
388.508	0.0694
388.836	0.0682
389.164	0.0673
389.491	0.0659
389.818	0.0651
390.146	0.0651
390.473	0.0635
390.8	0.0636
391.127	0.0615
391.454	0.0607
391.781	0.0604
392.108	0.0599
392.435	0.0587
392.761	0.0585
393.088	0.0578
393.415	0.0571
393.741	0.0574
394.067	0.0563
394.394	0.0558
394.72	0.0549
395.046	0.054
395.372	0.0532
395.698	0.0531
396.024	0.0514
396.35	0.0515
396.676	0.0501
397.001	0.0496
397.327	0.0486
397.653	0.048
397.978	0.0476
398.303	0.0467
398.629	0.0462
398.954	0.0457
399.279	0.0458
399.604	0.0444
399.929	0.0447
400.254	0.043
400.579	0.0433
400.904	0.0422
401.229	0.0416
401.553	0.042
401.878	0.0415
402.202	0.0417
402.527	0.0404
402.851	0.0401
403.175	0.0391
403.5	0.0392
403.824	0.0384
404.148	0.039
404.472	0.0379
404.796	0.0381
405.119	0.0381
405.443	0.0378
405.767	0.0371
406.09	0.0374
406.414	0.0367
406.737	0.0371
407.061	0.0372
407.384	0.0368
407.707	0.0367
408.03	0.0355
408.353	0.036
408.676	0.0353
408.999	0.036
409.322	0.0352
409.645	0.0357
409.968	0.0353
410.29	0.0352
410.613	0.0356
410.935	0.0346
411.258	0.035
411.58	0.0342
411.902	0.0344
412.224	0.0346
412.546	0.0347
412.868	0.0356
413.19	0.0347
413.512	0.0345
413.834	0.0344
414.156	0.0352
414.477	0.0335
414.799	0.0346
415.121	0.0339
415.442	0.0343
415.763	0.0339
416.085	0.034
416.406	0.0337
416.727	0.0344
417.048	0.0345
417.369	0.034
417.69	0.0335
418.011	0.0339
418.331	0.0343
418.652	0.0337
418.973	0.0335
419.293	0.0338
419.614	0.0335
419.934	0.0336
420.254	0.0341
420.574	0.0329
420.895	0.0333
421.215	0.0331
421.535	0.0332
421.855	0.0333
422.174	0.0326
422.494	0.0333
422.814	0.033
423.134	0.0331
423.453	0.0337
423.773	0.0342
424.092	0.0338
424.411	0.0338
424.731	0.0337
425.05	0.0338
425.369	0.0334
425.688	0.0331
426.007	0.0334
426.326	0.034
426.644	0.0338
426.963	0.0331
427.282	0.0334
427.6	0.0336
427.919	0.0341
428.237	0.0339
428.556	0.0339
428.874	0.034
429.192	0.0335
429.51	0.0332
429.828	0.0337
430.146	0.0335
430.464	0.0335
430.782	0.0335
431.1	0.0334
431.418	0.0335
431.735	0.0327
432.053	0.0334
432.37	0.0335
432.688	0.0331
433.005	0.0328
433.322	0.0339
433.639	0.0339
433.957	0.0333
434.274	0.0338
434.591	0.0337
434.907	0.0333
435.224	0.0336
435.541	0.0331
435.858	0.0342
436.174	0.034
436.491	0.0334
436.807	0.0333
437.124	0.0334
437.44	0.0331
437.756	0.0337
438.072	0.0323
438.388	0.0332
438.704	0.0331
439.02	0.0333
439.336	0.0324
439.652	0.0332
439.968	0.0328
440.283	0.0331
440.599	0.0333
440.914	0.0322
441.23	0.0329
441.545	0.033
441.86	0.0331
442.175	0.0331
442.491	0.0324
442.806	0.0327
443.121	0.0315
443.435	0.0317
443.75	0.0327
444.065	0.0325
444.38	0.0321
444.694	0.0317
445.009	0.032
445.323	0.0317
445.638	0.0322
445.952	0.0315
446.266	0.0315
446.58	0.0311
446.894	0.0313
447.208	0.0312
447.522	0.0311
447.836	0.0318
448.15	0.031
448.464	0.0303
448.777	0.0309
449.091	0.0307
449.404	0.0304
449.718	0.0308
450.031	0.0302
450.345	0.0302
450.658	0.0296
450.971	0.0306
451.284	0.0299
451.597	0.0302
451.91	0.0301
452.223	0.0306
452.535	0.0299
452.848	0.03
453.161	0.0297
453.473	0.0296
453.786	0.0296
454.098	0.0294
454.411	0.0298
454.723	0.0291
455.035	0.0285
455.347	0.0289
455.659	0.029
455.971	0.0294
456.283	0.0296
456.595	0.029
456.907	0.0294
457.218	0.0293
457.53	0.0276
457.841	0.0278
458.153	0.0279
458.464	0.0273
458.776	0.0272
459.087	0.0285
459.398	0.0275
459.709	0.0269
460.02	0.0285
460.331	0.0278
460.642	0.0265
460.953	0.0267
461.263	0.0268
461.574	0.0263
461.885	0.0271
462.195	0.0263
462.506	0.0267
462.816	0.0265
463.126	0.0263
463.437	0.0258
463.747	0.0254
464.057	0.0245
464.367	0.0248
464.677	0.0251
464.987	0.0244
465.296	0.0246
465.606	0.0249
465.916	0.0239
466.225	0.0243
466.535	0.0243
466.844	0.0248
467.154	0.0247
467.463	0.0242
467.772	0.0241
468.081	0.0245
468.39	0.0241
468.699	0.0243
469.008	0.0237
469.317	0.0236
469.626	0.0235
469.935	0.0226
470.243	0.0231
470.552	0.0224
470.86	0.0226
471.169	0.022
471.477	0.022
471.785	0.0224
472.093	0.0219
472.402	0.0212
472.71	0.021
473.018	0.0209
473.326	0.0216
473.633	0.0213
473.941	0.021
474.249	0.0213
474.556	0.0202
474.864	0.0208
475.171	0.0202
475.479	0.0201
475.786	0.021
476.094	0.0198
476.401	0.0197
476.708	0.0199
477.015	0.0198
477.322	0.0185
477.629	0.0183
477.936	0.0188
478.242	0.0186
478.549	0.0191
478.856	0.0185
479.162	0.0187
479.469	0.0187
479.775	0.0181
480.081	0.0172
480.388	0.0172
480.694	0.0178
481	0.0173
481.306	0.0171
481.612	0.0172
481.918	0.0175
482.224	0.0174
482.53	0.0172
482.835	0.0169
483.141	0.0174
483.446	0.0172
483.752	0.0164
484.057	0.0161
484.363	0.0155
484.668	0.0156
484.973	0.0153
485.278	0.0146
485.583	0.0143
485.888	0.015
486.193	0.0137
486.498	0.0142
486.803	0.0145
487.107	0.0142
487.412	0.0136
487.717	0.013
488.021	0.0137
488.325	0.0132
488.63	0.014
488.934	0.0139
489.238	0.0135
489.542	0.0136
489.846	0.0134
490.15	0.013
490.454	0.0142
490.758	0.0127
491.062	0.0125
491.366	0.0134
491.669	0.0127
491.973	0.0125
492.276	0.0129
492.58	0.0119
492.883	0.0124
493.186	0.012
493.489	0.0124
493.792	0.0113
494.096	0.0117
494.399	0.0116
494.701	0.0112
495.004	0.0108
495.307	0.0106
495.61	0.0108
495.912	0.0113
496.215	0.0115
496.517	0.0109
496.82	0.01
497.122	0.0103
497.424	0.0105
497.727	0.0105
498.029	0.0098
498.331	0.0098
498.633	0.0098
498.935	0.0088
499.237	0.01
499.538	0.0093
499.84	0.0098
500.142	0.009
500.443	0.0094
500.745	0.0091
501.046	0.0096
501.348	0.0079
501.649	0.0078
501.95	0.0081
502.251	0.0091
502.552	0.0072
502.853	0.0088
503.154	0.0084
503.455	0.0089
503.756	0.0083
504.057	0.007
504.357	0.0078
504.658	0.0074
504.958	0.0073
505.259	0.0075
505.559	0.0074
505.859	0.0062
506.16	0.007
506.46	0.0069
506.76	0.0064
507.06	0.0058
507.36	0.0066
507.66	0.0069
507.96	0.0075
508.259	0.0065
508.559	0.006
508.859	0.0071
509.158	0.0062
509.457	0.0055
509.757	0.0065
510.056	0.0055
510.355	0.0055
510.655	0.005
510.954	0.0052
511.253	0.0056
511.552	0.0059
511.851	0.005
512.149	0.0054
512.448	0.0053
512.747	0.005
513.045	0.0051
513.344	0.005
513.642	0.0052
513.941	0.0049
514.239	0.0048
514.537	0.0049
514.836	0.0049
515.134	0.0045
515.432	0.0042
515.73	0.0038
516.028	0.0048
516.326	0.0039
516.623	0.0035
516.921	0.0046
517.219	0.005
517.516	0.0034
517.814	0.0049
518.111	0.0043
518.409	0.0045
518.706	0.0039
519.003	0.0037
519.3	0.0033
519.597	0.0051
519.894	0.0031
520.191	0.0048
520.488	0.0045
520.785	0.0037
521.082	0.0045
521.378	0.0047
521.675	0.003
521.971	0.0037
522.268	0.004
522.564	0.0042
522.861	0.0047
523.157	0.0034
523.453	0.0037
523.749	0.0037
524.045	0.0026
524.341	0.0032
524.637	0.0036
524.933	0.0044
525.229	0.0042
525.524	0.0035
525.82	0.0037
526.115	0.0031
526.411	0.0032
526.706	0.0041
527.002	0.0042
527.297	0.0026
527.592	0.004
527.887	0.0027
528.182	0.0029
528.477	0.004
528.772	0.0026
529.067	0.0034
529.362	0.0036
529.657	0.0038
529.951	0.0032
530.246	0.003
530.54	0.0026
530.835	0.0034
531.129	0.0034
531.423	0.0025
531.718	0.0023
532.012	0.0023
532.306	0.0035
532.6	0.0025
532.894	0.0029
533.188	0.0024
533.482	0.0035
533.775	0.0025
534.069	0.0029
534.363	0.0023
534.656	0.002
534.95	0.0034
535.243	0.0027
535.536	0.0021
535.83	0.002
536.123	0.0019
536.416	0.0022
536.709	0.0028
537.002	0.0035
537.295	0.0024
537.588	0.003
537.881	0.0025
538.173	0.0024
538.466	0.0029
538.759	0.0028
539.051	0.003
539.344	0.0028
539.636	0.0022
539.928	0.0043
540.22	0.0026
540.513	0.0025
540.805	0.0029
541.097	0.004
541.389	0.0036
541.681	0.004
541.972	0.0016
542.264	0.0038
542.556	0.003
542.847	0.003
543.139	0.0033
543.431	0.0035
543.722	0.0022
544.013	0.0031
544.305	0.0032
544.596	0.0027
544.887	0.0037
545.178	0.0029
545.469	0.0041
545.76	0.0036
546.051	0.0039
546.342	0.0033
546.632	0.003
546.923	0.003
547.214	0.0023
547.504	0.0035
547.795	0.0026
548.085	0.0022
548.375	0.0035
548.666	0.0037
548.956	0.0023
549.246	0.0035
549.536	0.0041
549.826	0.0038
550.116	0.0033
550.406	0.0039
550.695	0.0037
550.985	0.0036
551.275	0.0034
551.564	0.0048
551.854	0.0042
552.143	0.0038
552.433	0.0035
552.722	0.0033
553.011	0.0035
553.3	0.0029
553.589	0.0047
553.879	0.0039
554.167	0.0031
554.456	0.0034
554.745	0.0038
555.034	0.0041
555.323	0.0032
555.611	0.0036
555.9	0.0038
556.188	0.0035
556.477	0.0024
556.765	0.0043
557.053	0.0031
557.342	0.0031
557.63	0.0032
557.918	0.0039
558.206	0.0038
558.494	0.0041
558.782	0.0037
559.069	0.0046
559.357	0.0033
559.645	0.0039
559.932	0.0035
560.22	0.0034
560.507	0.0019
560.795	0.0023
561.082	0.0022
561.37	0.0025
561.657	0.0021
561.944	0.003
562.231	0.0025
562.518	0.0025
562.805	0.0032
563.092	0.0026
563.379	0.0031
563.665	0.0031
563.952	0.0039
564.239	0.0045
564.525	0.0033
564.811	0.0029
565.098	0.0036
565.384	0.003
565.67	0.003
565.957	0.0032
566.243	0.0038
566.529	0.0026
566.815	0.0039
567.101	0.0034
567.387	0.0029
567.672	0.0024
567.958	0.0026
568.244	0.0022
568.529	0.0024
568.815	0.0023
569.1	0.0024
569.386	0.0031
569.671	0.0023
569.956	0.0022
570.242	0.0028
570.527	0.002
570.812	0.0022
571.097	0.002
571.382	0.0012
571.666	0.0015
571.951	0.002
572.236	0.0017
572.521	0.0022
572.805	0.0029
573.09	0.0027
573.374	0.0019
573.659	0.002
573.943	0.0022
574.227	0.0026
574.511	0.0018
574.795	0.0025
575.079	0.0033
575.363	0.0026
575.647	0.0016
575.931	0.0023
576.215	0.0034
576.499	0.0016
576.782	0.0017
577.066	0.0022
577.349	0.003
577.633	0.0026
577.916	0.0026
578.2	0.0027
578.483	0.0025
578.766	0.0031
579.049	0.0029
579.332	0.0021
579.615	0.0016
579.898	0.0017
580.181	0.0023
580.464	0.0023
580.746	0.0019
581.029	0.003
581.312	0.0015
581.594	0.0012
581.877	0.0015
582.159	0.0029
582.441	0.0016
582.724	0.0022
583.006	0.0024
583.288	0.0032
583.57	0.0026
583.852	0.0034
584.134	0.0035
584.416	0.0024
584.697	0.0024
584.979	0.002
585.261	0.0019
585.542	0.0024
585.824	0.0029
586.105	0.0025
586.387	0.003
586.668	0.003
586.949	0.0039
587.231	0.0027
587.512	0.0031
587.793	0.0021
588.074	0.0025
588.355	0.0027
588.636	0.0021
588.916	0.0025
589.197	0.0021
589.478	0.0027
589.758	0.002
590.039	0.0017
590.319	0.001
590.6	0.0015
590.88	0.002
591.16	0.002
591.441	0.0026
591.721	0.0014
592.001	0.0021
592.281	0.0026
592.561	0.0027
592.841	0.0025
593.12	0.0021
593.4	0.0026
593.68	0.0025
593.959	0.0024
594.239	0.0033
594.518	0.0037
594.798	0.0031
595.077	0.0023
595.356	0.002
595.636	0.0022
595.915	0.0025
596.194	0.0025
596.473	0.0026
596.752	0.0024
