Data from 03 0.4 mM K2Cr2O7 0.25 M BQDS 1 M H2SO4 5 min_Absorbance_0040.txt Node
Date: Tue Dec 14 20:50:13 EST 2021
User: kwabilab-user
Spectrometer: HDX00518
Trigger mode: 0
Integration Time (sec): 5.000000E-2
Scans to average: 50
Nonlinearity correction enabled: false
Boxcar width: 0
Storing dark spectrum: false
XAxis mode: Wavelengths
Number of Pixels in Spectrum: 2068
>>>>>Begin Spectral Data<<<<<
195.27	0.0226
195.642	0.1103
196.014	-0.0777
196.386	0.0066
196.758	-0.071
197.129	-0.011
197.501	-0.0126
197.872	0.0178
198.244	0.0261
198.615	0.0614
198.986	0.0267
199.357	0.0349
199.728	0.0412
200.099	0.0292
200.47	0.0332
200.841	0.022
201.212	0.0352
201.582	0.0412
201.953	0.0304
202.323	0.03
202.694	0.0306
203.064	0.0418
203.434	0.0227
203.804	0.0146
204.174	0.0261
204.544	0.0419
204.914	0.0257
205.284	0.0341
205.653	0.0196
206.023	0.0239
206.393	0.0257
206.762	0.0237
207.131	0.0464
207.501	0.0305
207.87	0.0338
208.239	0.0226
208.608	0.0382
208.977	0.0101
209.346	0.0277
209.715	0.0439
210.083	0.0363
210.452	0.0229
210.82	0.025
211.189	0.0281
211.557	0.0169
211.925	0.0246
212.294	0.0137
212.662	0.0361
213.03	0.0225
213.398	0.0381
213.766	0.0337
214.133	0.0353
214.501	0.0261
214.869	0.0154
215.236	0.0287
215.604	0.029
215.971	0.0613
216.338	0.0318
216.705	0.048
217.072	0.0521
217.439	0.0435
217.806	0.0498
218.173	0.0761
218.54	0.0849
218.907	0.0776
219.273	0.0702
219.64	0.1106
220.006	0.0798
220.373	0.1115
220.739	0.1248
221.105	0.1486
221.471	0.142
221.837	0.1948
222.203	0.2002
222.569	0.1837
222.935	0.2107
223.3	0.2311
223.666	0.2537
224.031	0.2915
224.397	0.3125
224.762	0.3354
225.127	0.3506
225.493	0.3709
225.858	0.4137
226.223	0.4365
226.588	0.4399
226.952	0.4715
227.317	0.4959
227.682	0.5009
228.046	0.5108
228.411	0.5425
228.775	0.5562
229.14	0.5648
229.504	0.5669
229.868	0.5897
230.232	0.6102
230.596	0.6139
230.96	0.6403
231.324	0.6203
231.688	0.6315
232.052	0.6464
232.415	0.6433
232.779	0.6464
233.142	0.6544
233.505	0.6503
233.869	0.6778
234.232	0.6849
234.595	0.6637
234.958	0.6511
235.321	0.6642
235.684	0.6667
236.047	0.6762
236.409	0.6542
236.772	0.6643
237.134	0.6493
237.497	0.6448
237.859	0.663
238.222	0.646
238.584	0.6495
238.946	0.6429
239.308	0.6426
239.67	0.6508
240.032	0.6416
240.393	0.638
240.755	0.6313
241.117	0.6315
241.478	0.6215
241.84	0.63
242.201	0.6126
242.562	0.6207
242.924	0.6168
243.285	0.6072
243.646	0.6127
244.007	0.6107
244.368	0.6124
244.728	0.6123
245.089	0.6117
245.45	0.6011
245.81	0.6005
246.171	0.5988
246.531	0.6017
246.891	0.5973
247.252	0.5961
247.612	0.5977
247.972	0.598
248.332	0.5974
248.692	0.6
249.051	0.5941
249.411	0.5957
249.771	0.5936
250.13	0.5891
250.49	0.5897
250.849	0.5883
251.208	0.5898
251.568	0.587
251.927	0.5854
252.286	0.5921
252.645	0.5885
253.004	0.5927
253.363	0.5906
253.721	0.5918
254.08	0.5885
254.439	0.5859
254.797	0.5877
255.155	0.5898
255.514	0.5827
255.872	0.5853
256.23	0.5864
256.588	0.5908
256.946	0.5877
257.304	0.5838
257.662	0.5918
258.02	0.5839
258.377	0.5792
258.735	0.5835
259.093	0.5787
259.45	0.5776
259.807	0.5859
260.165	0.5769
260.522	0.5771
260.879	0.5794
261.236	0.579
261.593	0.5708
261.95	0.5719
262.306	0.5749
262.663	0.574
263.02	0.5633
263.376	0.5654
263.733	0.5667
264.089	0.5658
264.445	0.5647
264.802	0.5619
265.158	0.5581
265.514	0.5572
265.87	0.5597
266.226	0.5524
266.581	0.5539
266.937	0.5521
267.293	0.5485
267.648	0.5412
268.004	0.5451
268.359	0.5442
268.714	0.5353
269.07	0.5335
269.425	0.5325
269.78	0.5349
270.135	0.5289
270.49	0.5291
270.844	0.5249
271.199	0.5218
271.554	0.513
271.908	0.5076
272.263	0.5121
272.617	0.5112
272.972	0.5061
273.326	0.5036
273.68	0.4978
274.034	0.4998
274.388	0.4979
274.742	0.4911
275.096	0.4893
275.45	0.4864
275.803	0.4832
276.157	0.4783
276.51	0.4729
276.864	0.4702
277.217	0.4647
277.571	0.4632
277.924	0.4591
278.277	0.4543
278.63	0.4485
278.983	0.4461
279.336	0.4433
279.688	0.4405
280.041	0.4351
280.394	0.4276
280.746	0.4255
281.099	0.4215
281.451	0.4179
281.803	0.4098
282.156	0.4071
282.508	0.4032
282.86	0.4012
283.212	0.3971
283.564	0.3906
283.916	0.3861
284.267	0.3833
284.619	0.3799
284.971	0.373
285.322	0.3735
285.673	0.3665
286.025	0.3633
286.376	0.3624
286.727	0.3559
287.078	0.3508
287.429	0.3495
287.78	0.3454
288.131	0.3417
288.482	0.3369
288.833	0.3327
289.183	0.3293
289.534	0.3267
289.884	0.3209
290.235	0.3173
290.585	0.3149
290.935	0.3114
291.285	0.3067
291.635	0.3032
291.985	0.2999
292.335	0.2968
292.685	0.2933
293.035	0.2872
293.384	0.2854
293.734	0.2791
294.083	0.2775
294.433	0.2738
294.782	0.2716
295.131	0.2668
295.48	0.2645
295.829	0.2605
296.179	0.2571
296.527	0.2536
296.876	0.2502
297.225	0.2458
297.574	0.2431
297.922	0.2385
298.271	0.236
298.619	0.2338
298.968	0.2308
299.316	0.227
299.664	0.225
300.012	0.2215
300.36	0.2192
300.708	0.2157
301.056	0.2135
301.404	0.2096
301.752	0.2075
302.099	0.2048
302.447	0.2022
302.794	0.1994
303.142	0.1971
303.489	0.1942
303.836	0.1936
304.183	0.1912
304.531	0.1888
304.878	0.1859
305.224	0.1841
305.571	0.1828
305.918	0.1813
306.265	0.1786
306.611	0.1771
306.958	0.1753
307.304	0.1744
307.651	0.1729
307.997	0.171
308.343	0.1697
308.689	0.1686
309.035	0.1674
309.381	0.1664
309.727	0.165
310.073	0.1644
310.419	0.1628
310.764	0.163
311.11	0.1615
311.455	0.1602
311.801	0.1595
312.146	0.1586
312.491	0.1583
312.837	0.1584
313.182	0.1576
313.527	0.156
313.872	0.156
314.216	0.1565
314.561	0.1557
314.906	0.1556
315.251	0.1566
315.595	0.1561
315.94	0.1556
316.284	0.1547
316.628	0.1559
316.972	0.1559
317.317	0.1553
317.661	0.1562
318.005	0.1563
318.348	0.1565
318.692	0.157
319.036	0.1577
319.38	0.1575
319.723	0.1572
320.067	0.1588
320.41	0.1593
320.754	0.1596
321.097	0.1597
321.44	0.1607
321.783	0.1614
322.126	0.1623
322.469	0.1631
322.812	0.1638
323.155	0.1647
323.498	0.1656
323.84	0.166
324.183	0.167
324.525	0.168
324.868	0.1703
325.21	0.17
325.552	0.1705
325.894	0.1723
326.236	0.1727
326.578	0.1741
326.92	0.1747
327.262	0.1759
327.604	0.1772
327.946	0.1778
328.287	0.1792
328.629	0.1803
328.97	0.1816
329.312	0.1821
329.653	0.1833
329.994	0.1852
330.335	0.1858
330.676	0.1878
331.017	0.1887
331.358	0.1898
331.699	0.1916
332.04	0.1925
332.38	0.1928
332.721	0.1947
333.061	0.1964
333.402	0.1978
333.742	0.1986
334.083	0.1983
334.423	0.2002
334.763	0.2014
335.103	0.2023
335.443	0.2034
335.783	0.204
336.123	0.2051
336.462	0.2069
336.802	0.2068
337.141	0.2079
337.481	0.2094
337.82	0.2101
338.16	0.2112
338.499	0.2125
338.838	0.2132
339.177	0.2139
339.516	0.215
339.855	0.2158
340.194	0.2172
340.533	0.2171
340.872	0.2176
341.21	0.2191
341.549	0.2191
341.887	0.22
342.226	0.22
342.564	0.2214
342.902	0.2218
343.24	0.2216
343.578	0.2227
343.916	0.2222
344.254	0.2232
344.592	0.223
344.93	0.2241
345.268	0.2228
345.605	0.2229
345.943	0.2241
346.28	0.2231
346.618	0.2234
346.955	0.2236
347.292	0.2247
347.629	0.2249
347.966	0.2239
348.303	0.2243
348.64	0.2242
348.977	0.2242
349.314	0.2242
349.65	0.2248
349.987	0.2245
350.324	0.2239
350.66	0.2244
350.996	0.2228
351.333	0.2231
351.669	0.222
352.005	0.2222
352.341	0.2217
352.677	0.2203
353.013	0.2192
353.349	0.2188
353.685	0.2176
354.02	0.2176
354.356	0.2155
354.691	0.215
355.027	0.2145
355.362	0.2127
355.697	0.2121
356.033	0.212
356.368	0.2106
356.703	0.2094
357.038	0.2092
357.373	0.2078
357.707	0.2073
358.042	0.2066
358.377	0.2048
358.711	0.2053
359.046	0.2032
359.38	0.2028
359.715	0.2024
360.049	0.2014
360.383	0.1989
360.717	0.1983
361.051	0.1975
361.385	0.1957
361.719	0.1947
362.053	0.1938
362.387	0.1912
362.72	0.1902
363.054	0.1888
363.387	0.1866
363.721	0.1857
364.054	0.1836
364.387	0.1824
364.721	0.1809
365.054	0.1793
365.387	0.179
365.72	0.1776
366.053	0.1756
366.385	0.1734
366.718	0.1725
367.051	0.1716
367.383	0.1701
367.716	0.1692
368.048	0.1674
368.381	0.1673
368.713	0.1649
369.045	0.1643
369.377	0.1635
369.709	0.1621
370.041	0.1607
370.373	0.1596
370.705	0.1582
371.037	0.1567
371.368	0.155
371.7	0.1533
372.031	0.1526
372.363	0.1508
372.694	0.1495
373.025	0.1476
373.356	0.1461
373.688	0.1439
374.019	0.1433
374.35	0.1408
374.68	0.1393
375.011	0.1371
375.342	0.1365
375.673	0.1346
376.003	0.1325
376.334	0.1312
376.664	0.1296
376.995	0.1284
377.325	0.1262
377.655	0.125
377.985	0.1233
378.315	0.1225
378.645	0.1212
378.975	0.1207
379.305	0.1183
379.635	0.1186
379.964	0.1166
380.294	0.1161
380.623	0.1149
380.953	0.1137
381.282	0.1129
381.611	0.1116
381.941	0.11
382.27	0.1095
382.599	0.1085
382.928	0.1068
383.257	0.1051
383.585	0.1046
383.914	0.1025
384.243	0.1011
384.571	0.0999
384.9	0.0982
385.228	0.0958
385.557	0.0954
385.885	0.0935
386.213	0.0928
386.541	0.0912
386.869	0.0902
387.197	0.0886
387.525	0.0874
387.853	0.0857
388.181	0.0846
388.508	0.0838
388.836	0.0822
389.164	0.0813
389.491	0.0794
389.818	0.078
390.146	0.0777
390.473	0.0768
390.8	0.0766
391.127	0.0738
391.454	0.0732
391.781	0.0732
392.108	0.0725
392.435	0.0713
392.761	0.0704
393.088	0.0698
393.415	0.0697
393.741	0.0684
394.067	0.0678
394.394	0.067
394.72	0.066
395.046	0.065
395.372	0.0642
395.698	0.0633
396.024	0.0625
396.35	0.0626
396.676	0.0614
397.001	0.06
397.327	0.0593
397.653	0.0579
397.978	0.0579
398.303	0.0571
398.629	0.0558
398.954	0.0554
399.279	0.0553
399.604	0.0545
399.929	0.0541
400.254	0.0528
400.579	0.0525
400.904	0.0515
401.229	0.0513
401.553	0.0507
401.878	0.0507
402.202	0.0506
402.527	0.0489
402.851	0.0493
403.175	0.0484
403.5	0.0478
403.824	0.0473
404.148	0.0469
404.472	0.0467
404.796	0.0466
405.119	0.0457
405.443	0.0459
405.767	0.0452
406.09	0.0451
406.414	0.045
406.737	0.0454
407.061	0.0453
407.384	0.0448
407.707	0.0439
408.03	0.0441
408.353	0.0436
408.676	0.0434
408.999	0.0435
409.322	0.0428
409.645	0.0425
409.968	0.0425
410.29	0.0426
410.613	0.0432
410.935	0.0417
411.258	0.0424
411.58	0.0414
411.902	0.0419
412.224	0.0418
412.546	0.0422
412.868	0.0428
413.19	0.0413
413.512	0.0417
413.834	0.0417
414.156	0.0423
414.477	0.0408
414.799	0.0415
415.121	0.0406
415.442	0.0412
415.763	0.0409
416.085	0.0414
416.406	0.0411
416.727	0.0416
417.048	0.0412
417.369	0.0411
417.69	0.0406
418.011	0.0409
418.331	0.0409
418.652	0.0407
418.973	0.0405
419.293	0.0405
419.614	0.0406
419.934	0.0409
420.254	0.0409
420.574	0.04
420.895	0.0403
421.215	0.0406
421.535	0.0407
421.855	0.0404
422.174	0.0396
422.494	0.0398
422.814	0.0401
423.134	0.0403
423.453	0.0406
423.773	0.0411
424.092	0.041
424.411	0.0407
424.731	0.0411
425.05	0.041
425.369	0.0407
425.688	0.0405
426.007	0.041
426.326	0.0408
426.644	0.0398
426.963	0.0404
427.282	0.0405
427.6	0.0405
427.919	0.0404
428.237	0.0407
428.556	0.0409
428.874	0.0405
429.192	0.0404
429.51	0.0401
429.828	0.0404
430.146	0.0408
430.464	0.0406
430.782	0.0408
431.1	0.0392
431.418	0.0401
431.735	0.04
432.053	0.0398
432.37	0.0397
432.688	0.0398
433.005	0.0392
433.322	0.0406
433.639	0.0403
433.957	0.0398
434.274	0.0408
434.591	0.0408
434.907	0.0395
435.224	0.0402
435.541	0.0405
435.858	0.0405
436.174	0.0404
436.491	0.04
436.807	0.0397
437.124	0.0399
437.44	0.0398
437.756	0.0404
438.072	0.0393
438.388	0.0397
438.704	0.0396
439.02	0.0398
439.336	0.0399
439.652	0.0396
439.968	0.0392
440.283	0.0398
440.599	0.0401
440.914	0.0398
441.23	0.0403
441.545	0.0393
441.86	0.0393
442.175	0.0399
442.491	0.0393
442.806	0.0391
443.121	0.0386
443.435	0.0385
443.75	0.0389
444.065	0.0394
444.38	0.0387
444.694	0.0389
445.009	0.0386
445.323	0.0393
445.638	0.0385
445.952	0.0385
446.266	0.0378
446.58	0.0372
446.894	0.0388
447.208	0.0376
447.522	0.0372
447.836	0.0383
448.15	0.0376
448.464	0.0364
448.777	0.0378
449.091	0.0373
449.404	0.0372
449.718	0.0372
450.031	0.0364
450.345	0.037
450.658	0.0366
450.971	0.0367
451.284	0.0368
451.597	0.0366
451.91	0.0357
452.223	0.0365
452.535	0.0362
452.848	0.0363
453.161	0.0359
453.473	0.0358
453.786	0.0359
454.098	0.0358
454.411	0.0358
454.723	0.0354
455.035	0.0347
455.347	0.0345
455.659	0.0352
455.971	0.0352
456.283	0.0353
456.595	0.0356
456.907	0.0354
457.218	0.0352
457.53	0.0344
457.841	0.0337
458.153	0.0342
458.464	0.0334
458.776	0.0342
459.087	0.0339
459.398	0.0336
459.709	0.0336
460.02	0.0341
460.331	0.0338
460.642	0.0335
460.953	0.0324
461.263	0.0332
461.574	0.0318
461.885	0.0329
462.195	0.0318
462.506	0.0322
462.816	0.0329
463.126	0.0317
463.437	0.0321
463.747	0.0312
464.057	0.0302
464.367	0.0301
464.677	0.0308
464.987	0.0306
465.296	0.0306
465.606	0.0303
465.916	0.0296
466.225	0.0304
466.535	0.0299
466.844	0.0305
467.154	0.0303
467.463	0.0297
467.772	0.0289
468.081	0.0294
468.39	0.0297
468.699	0.0293
469.008	0.0285
469.317	0.0285
469.626	0.0288
469.935	0.0274
470.243	0.028
470.552	0.0279
470.86	0.0278
471.169	0.0266
471.477	0.0266
471.785	0.0269
472.093	0.0262
472.402	0.0267
472.71	0.0267
473.018	0.0252
473.326	0.0266
473.633	0.0261
473.941	0.0258
474.249	0.0256
474.556	0.0252
474.864	0.0253
475.171	0.0264
475.479	0.0247
475.786	0.0254
476.094	0.0249
476.401	0.0244
476.708	0.0237
477.015	0.0238
477.322	0.023
477.629	0.0233
477.936	0.0236
478.242	0.0229
478.549	0.0235
478.856	0.0227
479.162	0.0229
479.469	0.0219
479.775	0.0224
480.081	0.0211
480.388	0.0217
480.694	0.0218
481	0.0216
481.306	0.0218
481.612	0.0219
481.918	0.022
482.224	0.0213
482.53	0.0212
482.835	0.0207
483.141	0.0212
483.446	0.0206
483.752	0.0194
484.057	0.0194
484.363	0.0197
484.668	0.0202
484.973	0.0187
485.278	0.0185
485.583	0.0185
485.888	0.0197
486.193	0.018
486.498	0.0186
486.803	0.0181
487.107	0.0175
487.412	0.0169
487.717	0.0175
488.021	0.0178
488.325	0.0174
488.63	0.0176
488.934	0.0173
489.238	0.0171
489.542	0.0167
489.846	0.0173
490.15	0.0168
490.454	0.0179
490.758	0.0163
491.062	0.0166
491.366	0.0161
491.669	0.016
491.973	0.016
492.276	0.0158
492.58	0.0151
492.883	0.0167
493.186	0.0147
493.489	0.0152
493.792	0.0148
494.096	0.0135
494.399	0.0143
494.701	0.0141
495.004	0.0136
495.307	0.0132
495.61	0.0141
495.912	0.0151
496.215	0.0138
496.517	0.0146
496.82	0.0137
497.122	0.0131
497.424	0.0138
497.727	0.0134
498.029	0.0123
498.331	0.0124
498.633	0.0123
498.935	0.0122
499.237	0.0122
499.538	0.0121
499.84	0.0118
500.142	0.0113
500.443	0.0123
500.745	0.0115
501.046	0.0111
501.348	0.0102
501.649	0.011
501.95	0.0111
502.251	0.0114
502.552	0.0099
502.853	0.0111
503.154	0.0112
503.455	0.0109
503.756	0.0112
504.057	0.0108
504.357	0.0105
504.658	0.0104
504.958	0.0099
505.259	0.0099
505.559	0.0094
505.859	0.0088
506.16	0.0086
506.46	0.0091
506.76	0.0091
507.06	0.008
507.36	0.0085
507.66	0.0098
507.96	0.0101
508.259	0.0093
508.559	0.0083
508.859	0.0093
509.158	0.0091
509.457	0.0083
509.757	0.0081
510.056	0.0085
510.355	0.0075
510.655	0.0069
510.954	0.0072
511.253	0.0083
511.552	0.0082
511.851	0.0082
512.149	0.0076
512.448	0.0069
512.747	0.0067
513.045	0.0068
513.344	0.0064
513.642	0.0073
513.941	0.0072
514.239	0.0062
514.537	0.0071
514.836	0.0063
515.134	0.0066
515.432	0.0055
515.73	0.0069
516.028	0.0064
516.326	0.0057
516.623	0.0049
516.921	0.0062
517.219	0.0068
517.516	0.0053
517.814	0.0055
518.111	0.0059
518.409	0.0067
518.706	0.0056
519.003	0.0051
519.3	0.0062
519.597	0.0062
519.894	0.0051
520.191	0.0069
520.488	0.0066
520.785	0.0049
521.082	0.0059
521.378	0.006
521.675	0.0049
521.971	0.0055
522.268	0.0061
522.564	0.0055
522.861	0.0058
523.157	0.0044
523.453	0.0047
523.749	0.005
524.045	0.005
524.341	0.0054
524.637	0.0051
524.933	0.0068
525.229	0.0059
525.524	0.0043
525.82	0.0059
526.115	0.0055
526.411	0.0047
526.706	0.0053
527.002	0.0041
527.297	0.0037
527.592	0.0057
527.887	0.0034
528.182	0.0033
528.477	0.0043
528.772	0.0031
529.067	0.0046
529.362	0.0036
529.657	0.0042
529.951	0.0037
530.246	0.0032
530.54	0.0039
530.835	0.0037
531.129	0.0039
531.423	0.0035
531.718	0.0036
532.012	0.0031
532.306	0.0046
532.6	0.004
532.894	0.0031
533.188	0.0032
533.482	0.0036
533.775	0.0032
534.069	0.0037
534.363	0.0034
534.656	0.0032
534.95	0.0037
535.243	0.0032
535.536	0.003
535.83	0.0029
536.123	0.0034
536.416	0.0034
536.709	0.0043
537.002	0.0042
537.295	0.0033
537.588	0.0043
537.881	0.0036
538.173	0.0032
538.466	0.0041
538.759	0.0035
539.051	0.0034
539.344	0.0029
539.636	0.0033
539.928	0.0041
540.22	0.0037
540.513	0.0035
540.805	0.004
541.097	0.0036
541.389	0.0037
541.681	0.0042
541.972	0.0011
542.264	0.0041
542.556	0.0039
542.847	0.0026
543.139	0.0025
543.431	0.002
543.722	0.0021
544.013	0.0023
544.305	0.0029
544.596	0.0024
544.887	0.0029
545.178	0.0042
545.469	0.0029
545.76	0.0042
546.051	0.0033
546.342	0.0026
546.632	0.0021
546.923	0.0034
547.214	0.0024
547.504	0.0033
547.795	0.0027
548.085	0.0024
548.375	0.0034
548.666	0.0036
548.956	0.0036
549.246	0.0041
549.536	0.0042
549.826	0.0042
550.116	0.0042
550.406	0.0037
550.695	0.0041
550.985	0.0036
551.275	0.0034
551.564	0.0058
551.854	0.0052
552.143	0.0045
552.433	0.0034
552.722	0.0041
553.011	0.0038
553.3	0.0035
553.589	0.0037
553.879	0.0036
554.167	0.0033
554.456	0.0041
554.745	0.0035
555.034	0.0051
555.323	0.0037
555.611	0.0043
555.9	0.004
556.188	0.0032
556.477	0.003
556.765	0.0054
557.053	0.0033
557.342	0.003
557.63	0.0033
557.918	0.0044
558.206	0.0042
558.494	0.0042
558.782	0.0029
559.069	0.0052
559.357	0.0046
559.645	0.0048
559.932	0.0042
560.22	0.0032
560.507	0.0028
560.795	0.0024
561.082	0.0018
561.37	0.0036
561.657	0.0022
561.944	0.002
562.231	0.0034
562.518	0.0037
562.805	0.0034
563.092	0.0028
563.379	0.0033
563.665	0.0037
563.952	0.0042
564.239	0.0048
564.525	0.0046
564.811	0.004
565.098	0.0044
565.384	0.0031
565.67	0.0033
565.957	0.0042
566.243	0.0046
566.529	0.004
566.815	0.0037
567.101	0.0028
567.387	0.0033
567.672	0.0028
567.958	0.0022
568.244	0.0015
568.529	0.0032
568.815	0.0035
569.1	0.003
569.386	0.0032
569.671	0.0027
569.956	0.0033
570.242	0.0034
570.527	0.0025
570.812	0.0026
571.097	0.0022
571.382	0.0018
571.666	0.0026
571.951	0.0042
572.236	0.0032
572.521	0.003
572.805	0.0035
573.09	0.0039
573.374	0.0029
573.659	0.0029
573.943	0.0029
574.227	0.0033
574.511	0.0035
574.795	0.0033
575.079	0.0033
575.363	0.0033
575.647	0.0028
575.931	0.0031
576.215	0.004
576.499	0.0038
576.782	0.0022
577.066	0.0024
577.349	0.0029
577.633	0.0043
577.916	0.0033
578.2	0.0035
578.483	0.0033
578.766	0.0041
579.049	0.0029
579.332	0.003
579.615	0.0025
579.898	0.0025
580.181	0.003
580.464	0.0028
580.746	0.003
581.029	0.0036
581.312	0.0027
581.594	0.0025
581.877	0.0026
582.159	0.0032
582.441	0.0022
582.724	0.0032
583.006	0.0031
583.288	0.0027
583.57	0.003
583.852	0.0029
584.134	0.0032
584.416	0.0027
584.697	0.0031
584.979	0.0032
585.261	0.0031
585.542	0.0026
585.824	0.0033
586.105	0.0033
586.387	0.0036
586.668	0.0035
586.949	0.0037
587.231	0.0033
587.512	0.0032
587.793	0.0031
588.074	0.0028
588.355	0.0033
588.636	0.0029
588.916	0.003
589.197	0.0021
589.478	0.0033
589.758	0.0026
590.039	0.0026
590.319	0.0018
590.6	0.0021
590.88	0.0021
591.16	0.0021
591.441	0.0031
591.721	0.0023
592.001	0.0021
592.281	0.0025
592.561	0.0028
592.841	0.0036
593.12	0.0028
593.4	0.0032
593.68	0.0023
593.959	0.0028
594.239	0.0031
594.518	0.0036
594.798	0.0032
595.077	0.0031
595.356	0.0027
595.636	0.0027
595.915	0.0027
