Data from 03 0.4 mM K2Cr2O7 0.25 M BQDS 1 M H2SO4 5 min_Absorbance_0196.txt Node
Date: Wed Dec 15 09:50:12 EST 2021
User: kwabilab-user
Spectrometer: HDX00518
Trigger mode: 0
Integration Time (sec): 5.000000E-2
Scans to average: 50
Nonlinearity correction enabled: false
Boxcar width: 0
Storing dark spectrum: false
XAxis mode: Wavelengths
Number of Pixels in Spectrum: 2068
>>>>>Begin Spectral Data<<<<<
195.27	-0.1715
195.642	0.1287
196.014	-0.1435
196.386	0.052
196.758	-0.0567
197.129	-0.025
197.501	-0.0299
197.872	0.0267
198.244	0.0143
198.615	0.0438
198.986	0.0114
199.357	0.023
199.728	0.0256
200.099	0.0203
200.47	0.0146
200.841	0.0128
201.212	0.0279
201.582	0.0326
201.953	0.027
202.323	0.029
202.694	0.0252
203.064	0.0058
203.434	0.0158
203.804	0.0046
204.174	0.0082
204.544	0.0195
204.914	0.0029
205.284	0.0036
205.653	0.0132
206.023	0.0119
206.393	0.0464
206.762	0.0068
207.131	0.0374
207.501	0.0236
207.87	0.0334
208.239	0.0142
208.608	0.0291
208.977	0.0172
209.346	0.0151
209.715	0.0435
210.083	0.0175
210.452	0.0115
210.82	0.0361
211.189	0.0071
211.557	0.0301
211.925	0.0367
212.294	0.0328
212.662	0.022
213.03	0.042
213.398	0.0225
213.766	0.0308
214.133	0.0436
214.501	0.0211
214.869	0.021
215.236	0.0247
215.604	0.0296
215.971	0.0612
216.338	0.0394
216.705	0.0305
217.072	0.0254
217.439	0.0379
217.806	0.0572
218.173	0.0737
218.54	0.0452
218.907	0.0828
219.273	0.0612
219.64	0.0747
220.006	0.073
220.373	0.0838
220.739	0.1173
221.105	0.1363
221.471	0.1392
221.837	0.1597
222.203	0.1738
222.569	0.1737
222.935	0.2006
223.3	0.2226
223.666	0.2524
224.031	0.2576
224.397	0.3013
224.762	0.3177
225.127	0.3438
225.493	0.3487
225.858	0.3858
226.223	0.3937
226.588	0.4216
226.952	0.4236
227.317	0.4694
227.682	0.4698
228.046	0.4749
228.411	0.4942
228.775	0.5273
229.14	0.5286
229.504	0.5553
229.868	0.5441
230.232	0.5587
230.596	0.5609
230.96	0.5837
231.324	0.5716
231.688	0.5948
232.052	0.6014
232.415	0.6
232.779	0.596
233.142	0.6154
233.505	0.6145
233.869	0.6183
234.232	0.6064
234.595	0.6126
234.958	0.6151
235.321	0.6038
235.684	0.6034
236.047	0.6079
236.409	0.604
236.772	0.5922
237.134	0.5983
237.497	0.5941
237.859	0.6011
238.222	0.5906
238.584	0.5792
238.946	0.5815
239.308	0.5772
239.67	0.5777
240.032	0.5683
240.393	0.5724
240.755	0.5691
241.117	0.5619
241.478	0.56
241.84	0.5592
242.201	0.5544
242.562	0.5526
242.924	0.5438
243.285	0.5372
243.646	0.5372
244.007	0.5355
244.368	0.5368
244.728	0.5272
245.089	0.5349
245.45	0.5254
245.81	0.521
246.171	0.5171
246.531	0.5194
246.891	0.517
247.252	0.5133
247.612	0.5237
247.972	0.5068
248.332	0.5084
248.692	0.5142
249.051	0.507
249.411	0.5074
249.771	0.5036
250.13	0.5004
250.49	0.5014
250.849	0.4972
251.208	0.4979
251.568	0.5031
251.927	0.4868
252.286	0.4965
252.645	0.4857
253.004	0.489
253.363	0.4911
253.721	0.4891
254.08	0.4953
254.439	0.4867
254.797	0.485
255.155	0.4852
255.514	0.4829
255.872	0.481
256.23	0.4811
256.588	0.4877
256.946	0.4863
257.304	0.4808
257.662	0.4826
258.02	0.4843
258.377	0.4756
258.735	0.4762
259.093	0.4755
259.45	0.478
259.807	0.4762
260.165	0.4738
260.522	0.4756
260.879	0.4689
261.236	0.4696
261.593	0.4704
261.95	0.4694
262.306	0.4642
262.663	0.4657
263.02	0.464
263.376	0.4575
263.733	0.458
264.089	0.4579
264.445	0.4587
264.802	0.4537
265.158	0.449
265.514	0.4497
265.87	0.4492
266.226	0.4486
266.581	0.4495
266.937	0.4457
267.293	0.4437
267.648	0.4396
268.004	0.4383
268.359	0.4372
268.714	0.4319
269.07	0.4315
269.425	0.4252
269.78	0.4228
270.135	0.4251
270.49	0.422
270.844	0.4224
271.199	0.4164
271.554	0.4162
271.908	0.4087
272.263	0.415
272.617	0.4086
272.972	0.4055
273.326	0.4008
273.68	0.4026
274.034	0.3992
274.388	0.3961
274.742	0.3947
275.096	0.3885
275.45	0.3881
275.803	0.3854
276.157	0.3817
276.51	0.3794
276.864	0.3778
277.217	0.3782
277.571	0.371
277.924	0.3674
278.277	0.3635
278.63	0.3604
278.983	0.3574
279.336	0.3538
279.688	0.3524
280.041	0.3494
280.394	0.3437
280.746	0.3408
281.099	0.3391
281.451	0.3338
281.803	0.329
282.156	0.328
282.508	0.3232
282.86	0.3223
283.212	0.3206
283.564	0.3151
283.916	0.3103
284.267	0.307
284.619	0.3034
284.971	0.3012
285.322	0.2994
285.673	0.2945
286.025	0.2922
286.376	0.2895
286.727	0.2838
287.078	0.2803
287.429	0.2807
287.78	0.2756
288.131	0.2738
288.482	0.2691
288.833	0.264
289.183	0.2629
289.534	0.2588
289.884	0.2569
290.235	0.2521
290.585	0.2507
290.935	0.2465
291.285	0.243
291.635	0.2402
291.985	0.2383
292.335	0.2348
292.685	0.2326
293.035	0.227
293.384	0.2239
293.734	0.2224
294.083	0.2188
294.433	0.2162
294.782	0.2139
295.131	0.2091
295.48	0.2071
295.829	0.2047
296.179	0.2021
296.527	0.1985
296.876	0.1968
297.225	0.1914
297.574	0.1898
297.922	0.1873
298.271	0.1848
298.619	0.1809
298.968	0.1804
299.316	0.177
299.664	0.1748
300.012	0.1711
300.36	0.1691
300.708	0.1673
301.056	0.1654
301.404	0.1624
301.752	0.1606
302.099	0.1583
302.447	0.1556
302.794	0.1539
303.142	0.1512
303.489	0.149
303.836	0.1481
304.183	0.1464
304.531	0.1447
304.878	0.1413
305.224	0.1402
305.571	0.1398
305.918	0.1374
306.265	0.1349
306.611	0.1343
306.958	0.1337
307.304	0.1331
307.651	0.131
307.997	0.1298
308.343	0.1279
308.689	0.1267
309.035	0.1269
309.381	0.1252
309.727	0.1243
310.073	0.1246
310.419	0.1231
310.764	0.123
311.11	0.121
311.455	0.1208
311.801	0.1196
312.146	0.1191
312.491	0.1196
312.837	0.1192
313.182	0.1174
313.527	0.118
313.872	0.1179
314.216	0.1177
314.561	0.1174
314.906	0.1174
315.251	0.118
315.595	0.1175
315.94	0.1172
316.284	0.1174
316.628	0.1173
316.972	0.1183
317.317	0.1177
317.661	0.1178
318.005	0.1181
318.348	0.1186
318.692	0.119
319.036	0.1195
319.38	0.1199
319.723	0.12
320.067	0.1205
320.41	0.1212
320.754	0.1207
321.097	0.1209
321.44	0.1224
321.783	0.1231
322.126	0.1237
322.469	0.1238
322.812	0.1246
323.155	0.1257
323.498	0.1267
323.84	0.1269
324.183	0.1283
324.525	0.1295
324.868	0.1307
325.21	0.1305
325.552	0.1316
325.894	0.1328
326.236	0.1321
326.578	0.1337
326.92	0.1353
327.262	0.1351
327.604	0.1366
327.946	0.1373
328.287	0.1381
328.629	0.1401
328.97	0.1399
329.312	0.1409
329.653	0.1429
329.994	0.1431
330.335	0.1446
330.676	0.1461
331.017	0.1468
331.358	0.1479
331.699	0.1491
332.04	0.1502
332.38	0.1513
332.721	0.1517
333.061	0.153
333.402	0.1546
333.742	0.1547
334.083	0.1552
334.423	0.1567
334.763	0.1576
335.103	0.1585
335.443	0.1597
335.783	0.1605
336.123	0.1608
336.462	0.162
336.802	0.1627
337.141	0.1631
337.481	0.1646
337.82	0.1658
338.16	0.1664
338.499	0.1678
338.838	0.1682
339.177	0.1688
339.516	0.1697
339.855	0.1703
340.194	0.1718
340.533	0.171
340.872	0.172
341.21	0.174
341.549	0.1736
341.887	0.1742
342.226	0.1742
342.564	0.1747
342.902	0.1754
343.24	0.1753
343.578	0.1761
343.916	0.1754
344.254	0.1775
344.592	0.1774
344.93	0.1777
345.268	0.1769
345.605	0.1769
345.943	0.1778
346.28	0.1777
346.618	0.1779
346.955	0.1779
347.292	0.1783
347.629	0.1782
347.966	0.1785
348.303	0.178
348.64	0.179
348.977	0.1785
349.314	0.1793
349.65	0.1782
349.987	0.1794
350.324	0.1782
350.66	0.1794
350.996	0.1785
351.333	0.1783
351.669	0.1774
352.005	0.1768
352.341	0.1762
352.677	0.1751
353.013	0.1747
353.349	0.1746
353.685	0.1735
354.02	0.173
354.356	0.1726
354.691	0.1713
355.027	0.1711
355.362	0.1697
355.697	0.1695
356.033	0.1691
356.368	0.1678
356.703	0.1676
357.038	0.167
357.373	0.1661
357.707	0.1658
358.042	0.1649
358.377	0.1643
358.711	0.1642
359.046	0.1626
359.38	0.1626
359.715	0.1619
360.049	0.1605
360.383	0.1591
360.717	0.1585
361.051	0.1574
361.385	0.1569
361.719	0.1552
362.053	0.1558
362.387	0.1533
362.72	0.1527
363.054	0.1512
363.387	0.15
363.721	0.1485
364.054	0.1475
364.387	0.1459
364.721	0.1443
365.054	0.1437
365.387	0.1423
365.72	0.1412
366.053	0.1396
366.385	0.1384
366.718	0.138
367.051	0.1366
367.383	0.1354
367.716	0.1359
368.048	0.1337
368.381	0.1336
368.713	0.1321
369.045	0.1305
369.377	0.13
369.709	0.1295
370.041	0.1285
370.373	0.1271
370.705	0.1259
371.037	0.1244
371.368	0.123
371.7	0.1227
372.031	0.1213
372.363	0.1199
372.694	0.1189
373.025	0.118
373.356	0.1164
373.688	0.1151
374.019	0.1142
374.35	0.1111
374.68	0.1102
375.011	0.1089
375.342	0.1086
375.673	0.1069
376.003	0.1051
376.334	0.1048
376.664	0.103
376.995	0.1015
377.325	0.1005
377.655	0.0989
377.985	0.0974
378.315	0.097
378.645	0.0962
378.975	0.0956
379.305	0.0937
379.635	0.0935
379.964	0.0922
380.294	0.0921
380.623	0.0905
380.953	0.089
381.282	0.0893
381.611	0.0882
381.941	0.0875
382.27	0.0855
382.599	0.0855
382.928	0.0842
383.257	0.0832
383.585	0.0823
383.914	0.0805
384.243	0.0797
384.571	0.0784
384.9	0.0776
385.228	0.0761
385.557	0.075
385.885	0.0735
386.213	0.0732
386.541	0.0716
386.869	0.071
387.197	0.069
387.525	0.0692
387.853	0.0671
388.181	0.0663
388.508	0.0658
388.836	0.0641
389.164	0.0636
389.491	0.0626
389.818	0.0617
390.146	0.0608
390.473	0.0597
390.8	0.0599
391.127	0.0578
391.454	0.0573
391.781	0.0571
392.108	0.0566
392.435	0.0556
392.761	0.0545
393.088	0.0543
393.415	0.0536
393.741	0.0529
394.067	0.0537
394.394	0.0528
394.72	0.0511
395.046	0.0504
395.372	0.0499
395.698	0.0493
396.024	0.0482
396.35	0.048
396.676	0.0471
397.001	0.0468
397.327	0.0464
397.653	0.0451
397.978	0.045
398.303	0.0437
398.629	0.0431
398.954	0.0425
399.279	0.0427
399.604	0.0418
399.929	0.042
400.254	0.041
400.579	0.0402
400.904	0.04
401.229	0.0391
401.553	0.039
401.878	0.0384
402.202	0.039
402.527	0.0382
402.851	0.0384
403.175	0.0369
403.5	0.0369
403.824	0.036
404.148	0.0366
404.472	0.0364
404.796	0.0356
405.119	0.0356
405.443	0.0357
405.767	0.0349
406.09	0.0353
406.414	0.0344
406.737	0.0352
407.061	0.0351
407.384	0.0343
407.707	0.0344
408.03	0.0332
408.353	0.0337
408.676	0.0334
408.999	0.0336
409.322	0.033
409.645	0.0337
409.968	0.0333
410.29	0.033
410.613	0.0338
410.935	0.0323
411.258	0.0331
411.58	0.0324
411.902	0.0322
412.224	0.0324
412.546	0.0327
412.868	0.0333
413.19	0.0323
413.512	0.0322
413.834	0.0324
414.156	0.0332
414.477	0.0318
414.799	0.0324
415.121	0.0322
415.442	0.0324
415.763	0.0324
416.085	0.0323
416.406	0.0325
416.727	0.032
417.048	0.0323
417.369	0.0321
417.69	0.0318
418.011	0.0322
418.331	0.0323
418.652	0.0318
418.973	0.0317
419.293	0.0325
419.614	0.0314
419.934	0.0324
420.254	0.0319
420.574	0.0312
420.895	0.0314
421.215	0.0316
421.535	0.0319
421.855	0.0314
422.174	0.0304
422.494	0.0307
422.814	0.0313
423.134	0.0316
423.453	0.032
423.773	0.0323
424.092	0.0316
424.411	0.0316
424.731	0.0318
425.05	0.0319
425.369	0.0321
425.688	0.0317
426.007	0.0313
426.326	0.0322
426.644	0.0321
426.963	0.0314
427.282	0.0314
427.6	0.0314
427.919	0.0317
428.237	0.032
428.556	0.0317
428.874	0.0318
429.192	0.0312
429.51	0.032
429.828	0.0315
430.146	0.0318
430.464	0.0315
430.782	0.0315
431.1	0.0309
431.418	0.0309
431.735	0.031
432.053	0.0319
432.37	0.0313
432.688	0.031
433.005	0.0309
433.322	0.0321
433.639	0.0317
433.957	0.0316
434.274	0.0314
434.591	0.0317
434.907	0.031
435.224	0.0319
435.541	0.0314
435.858	0.0317
436.174	0.0318
436.491	0.031
436.807	0.0314
437.124	0.031
437.44	0.0314
437.756	0.0315
438.072	0.0305
438.388	0.0312
438.704	0.0309
439.02	0.0308
439.336	0.0307
439.652	0.0312
439.968	0.0308
440.283	0.031
440.599	0.0312
440.914	0.0313
441.23	0.031
441.545	0.0309
441.86	0.0313
442.175	0.0312
442.491	0.0302
442.806	0.0308
443.121	0.0298
443.435	0.0299
443.75	0.0301
444.065	0.0307
444.38	0.0303
444.694	0.0304
445.009	0.0296
445.323	0.0304
445.638	0.0295
445.952	0.0299
446.266	0.0294
446.58	0.0288
446.894	0.0292
447.208	0.0291
447.522	0.0287
447.836	0.0292
448.15	0.0291
448.464	0.0283
448.777	0.0292
449.091	0.0291
449.404	0.0283
449.718	0.029
450.031	0.028
450.345	0.0291
450.658	0.0277
450.971	0.0288
451.284	0.0282
451.597	0.0284
451.91	0.0283
452.223	0.0279
452.535	0.0278
452.848	0.0277
453.161	0.0277
453.473	0.0279
453.786	0.0278
454.098	0.0275
454.411	0.0277
454.723	0.0283
455.035	0.0266
455.347	0.0266
455.659	0.0273
455.971	0.0271
456.283	0.0277
456.595	0.0274
456.907	0.0275
457.218	0.0275
457.53	0.026
457.841	0.0258
458.153	0.0262
458.464	0.0259
458.776	0.0262
459.087	0.0257
459.398	0.0258
459.709	0.0248
460.02	0.0257
460.331	0.0254
460.642	0.0253
460.953	0.0252
461.263	0.0254
461.574	0.0245
461.885	0.026
462.195	0.0242
462.506	0.0252
462.816	0.0259
463.126	0.0248
463.437	0.024
463.747	0.0237
464.057	0.0231
464.367	0.0229
464.677	0.0237
464.987	0.0233
465.296	0.0226
465.606	0.0226
465.916	0.0224
466.225	0.0226
466.535	0.023
466.844	0.0226
467.154	0.023
467.463	0.0226
467.772	0.0223
468.081	0.0227
468.39	0.0226
468.699	0.0224
469.008	0.0221
469.317	0.0225
469.626	0.022
469.935	0.0208
470.243	0.0218
470.552	0.0209
470.86	0.0223
471.169	0.0212
471.477	0.0202
471.785	0.0205
472.093	0.0199
472.402	0.0204
472.71	0.0195
473.018	0.0203
473.326	0.02
473.633	0.0206
473.941	0.0196
474.249	0.0201
474.556	0.0192
474.864	0.0187
475.171	0.019
475.479	0.0188
475.786	0.0195
476.094	0.019
476.401	0.0183
476.708	0.0184
477.015	0.0183
477.322	0.0174
477.629	0.0168
477.936	0.0179
478.242	0.017
478.549	0.0177
478.856	0.0173
479.162	0.0171
479.469	0.0168
479.775	0.0168
480.081	0.0161
480.388	0.0159
480.694	0.0163
481	0.016
481.306	0.0165
481.612	0.0162
481.918	0.0167
482.224	0.0164
482.53	0.016
482.835	0.0165
483.141	0.0164
483.446	0.0159
483.752	0.0147
484.057	0.0152
484.363	0.0149
484.668	0.0152
484.973	0.0144
485.278	0.0141
485.583	0.0136
485.888	0.0137
486.193	0.0124
486.498	0.0142
486.803	0.0133
487.107	0.0129
487.412	0.0115
487.717	0.0123
488.021	0.0129
488.325	0.0125
488.63	0.013
488.934	0.0125
489.238	0.0127
489.542	0.0119
489.846	0.0123
490.15	0.0123
490.454	0.0126
490.758	0.0119
491.062	0.012
491.366	0.0113
491.669	0.0118
491.973	0.0117
492.276	0.0117
492.58	0.011
492.883	0.0108
493.186	0.0108
493.489	0.0116
493.792	0.0096
494.096	0.0101
494.399	0.01
494.701	0.0099
495.004	0.0095
495.307	0.0098
495.61	0.0103
495.912	0.0099
496.215	0.0107
496.517	0.0102
496.82	0.0089
497.122	0.0095
497.424	0.0096
497.727	0.0097
498.029	0.0092
498.331	0.0099
498.633	0.0091
498.935	0.0081
499.237	0.0095
499.538	0.0084
499.84	0.0082
500.142	0.0077
500.443	0.0084
500.745	0.0085
501.046	0.0087
501.348	0.0078
501.649	0.0073
501.95	0.0082
502.251	0.0079
502.552	0.0069
502.853	0.0078
503.154	0.0087
503.455	0.0073
503.756	0.0085
504.057	0.0069
504.357	0.0069
504.658	0.0068
504.958	0.0073
505.259	0.0074
505.559	0.0074
505.859	0.0065
506.16	0.006
506.46	0.0062
506.76	0.0063
507.06	0.0057
507.36	0.0049
507.66	0.0065
507.96	0.0075
508.259	0.0061
508.559	0.0057
508.859	0.0062
509.158	0.006
509.457	0.0053
509.757	0.0052
510.056	0.0054
510.355	0.0056
510.655	0.0045
510.954	0.0045
511.253	0.0054
511.552	0.005
511.851	0.0049
512.149	0.0045
512.448	0.0049
512.747	0.0051
513.045	0.005
513.344	0.0053
513.642	0.0049
513.941	0.0058
514.239	0.0052
514.537	0.0051
514.836	0.0045
515.134	0.0052
515.432	0.0036
515.73	0.0038
516.028	0.0045
516.326	0.0044
516.623	0.0031
516.921	0.0028
517.219	0.0052
517.516	0.0038
517.814	0.0045
518.111	0.0041
518.409	0.005
518.706	0.0044
519.003	0.0033
519.3	0.0031
519.597	0.0039
519.894	0.0029
520.191	0.0043
520.488	0.005
520.785	0.0041
521.082	0.0044
521.378	0.0043
521.675	0.0027
521.971	0.003
522.268	0.0041
522.564	0.004
522.861	0.0047
523.157	0.0046
523.453	0.004
523.749	0.003
524.045	0.003
524.341	0.0034
524.637	0.0034
524.933	0.0046
525.229	0.0034
525.524	0.004
525.82	0.0048
526.115	0.0036
526.411	0.0029
526.706	0.0039
527.002	0.0038
527.297	0.0022
527.592	0.004
527.887	0.0025
528.182	0.0036
528.477	0.0038
528.772	0.002
529.067	0.0034
529.362	0.0035
529.657	0.0031
529.951	0.0028
530.246	0.0031
530.54	0.0034
530.835	0.0031
531.129	0.0035
531.423	0.003
531.718	0.0029
532.012	0.0024
532.306	0.0032
532.6	0.0033
532.894	0.0034
533.188	0.0024
533.482	0.0023
533.775	0.0019
534.069	0.0025
534.363	0.0025
534.656	0.0025
534.95	0.003
535.243	0.0029
535.536	0.0012
535.83	0.0034
536.123	0.0013
536.416	0.0017
536.709	0.0024
537.002	0.0033
537.295	0.0028
537.588	0.0027
537.881	0.0025
538.173	0.0031
538.466	0.0025
538.759	0.0025
539.051	0.0024
539.344	0.0033
539.636	0.0024
539.928	0.0039
540.22	0.0019
540.513	0.0032
540.805	0.0028
541.097	0.0035
541.389	0.0024
541.681	0.0021
541.972	0.0024
542.264	0.0028
542.556	0.0027
542.847	0.0016
543.139	0.003
543.431	0.0002
543.722	0.0011
544.013	0.0019
544.305	0.0024
544.596	0.0025
544.887	0.0029
545.178	0.0035
545.469	0.0031
545.76	0.0033
546.051	0.0035
546.342	0.0025
546.632	0.0022
546.923	0.0026
547.214	0.0025
547.504	0.0032
547.795	0.0015
548.085	0.0035
548.375	0.0032
548.666	0.0037
548.956	0.0026
549.246	0.0045
549.536	0.0031
549.826	0.0044
550.116	0.0036
550.406	0.0027
550.695	0.0042
550.985	0.0035
551.275	0.004
551.564	0.0048
551.854	0.0043
552.143	0.0033
552.433	0.0035
552.722	0.0038
553.011	0.0038
553.3	0.004
553.589	0.0045
553.879	0.0038
554.167	0.0033
554.456	0.0036
554.745	0.0033
555.034	0.0048
555.323	0.0039
555.611	0.0039
555.9	0.0041
556.188	0.0027
556.477	0.0029
556.765	0.0051
557.053	0.004
557.342	0.0034
557.63	0.0031
557.918	0.0047
558.206	0.0035
558.494	0.0042
558.782	0.0033
559.069	0.0046
559.357	0.0035
559.645	0.0045
559.932	0.0033
560.22	0.0038
560.507	0.0024
560.795	0.0027
561.082	0.0014
561.37	0.0032
561.657	0.0018
561.944	0.003
562.231	0.0031
562.518	0.0039
562.805	0.0042
563.092	0.0026
563.379	0.0026
563.665	0.0033
563.952	0.0047
564.239	0.0049
564.525	0.0032
564.811	0.0028
565.098	0.0032
565.384	0.0027
565.67	0.0038
565.957	0.0041
566.243	0.0052
566.529	0.0039
566.815	0.0049
567.101	0.0036
567.387	0.0035
567.672	0.0037
567.958	0.0026
568.244	0.0021
568.529	0.0027
568.815	0.0029
569.1	0.0029
569.386	0.0035
569.671	0.0031
569.956	0.0022
570.242	0.003
570.527	0.0025
570.812	0.0015
571.097	0.0017
571.382	0.0013
571.666	0.0013
571.951	0.0028
572.236	0.0014
572.521	0.0031
572.805	0.0039
573.09	0.0027
573.374	0.0016
573.659	0.0021
573.943	0.0024
574.227	0.0027
574.511	0.0022
574.795	0.003
575.079	0.003
575.363	0.0027
575.647	0.0023
575.931	0.0033
576.215	0.0023
576.499	0.0017
576.782	0.0019
577.066	0.0028
577.349	0.0026
577.633	0.0032
577.916	0.0016
578.2	0.0027
578.483	0.0031
578.766	0.004
579.049	0.0027
579.332	0.0029
579.615	0.0027
579.898	0.0017
580.181	0.0031
580.464	0.0021
580.746	0.0024
581.029	0.0028
581.312	0.0012
581.594	0.0009
581.877	0.002
582.159	0.0027
582.441	0.0018
582.724	0.0031
583.006	0.0032
583.288	0.0029
583.57	0.003
583.852	0.0039
584.134	0.0034
584.416	0.0023
584.697	0.0027
584.979	0.002
585.261	0.002
585.542	0.0026
585.824	0.0034
586.105	0.0032
586.387	0.0028
586.668	0.0027
586.949	0.0042
587.231	0.0027
587.512	0.0025
587.793	0.0026
588.074	0.0026
588.355	0.0028
588.636	0.0021
588.916	0.0026
589.197	0.0026
589.478	0.0029
589.758	0.0027
590.039	0.0014
590.319	0.0022
590.6	0.0027
590.88	0.0021
591.16	0.0022
591.441	0.0033
591.721	0.0025
592.001	0.0024
592.281	0.0028
592.561	0.0032
592.841	0.002
593.12	0.0016
593.4	0.003
593.68	0.0026
593.959	0.0026
594.239	0.0032
594.518	0.0032
594.798	0.0034
595.077	0.0024
595.356	0.0025
595.636	0.0028
595.915	0.0027
596.194	0.0039
596.473	0.0029
596.752	0.0038
