Data from 03 0.4 mM K2Cr2O7 0.25 M BQDS 1 M H2SO4 5 min_Absorbance_0271.txt Node
Date: Wed Dec 15 16:05:12 EST 2021
User: kwabilab-user
Spectrometer: HDX00518
Trigger mode: 0
Integration Time (sec): 5.000000E-2
Scans to average: 50
Nonlinearity correction enabled: false
Boxcar width: 0
Storing dark spectrum: false
XAxis mode: Wavelengths
Number of Pixels in Spectrum: 2068
>>>>>Begin Spectral Data<<<<<
195.27	-0.2485
195.642	0.047
196.014	-0.15
196.386	-0.0254
196.758	-0.05
197.129	-0.0103
197.501	-0.0192
197.872	0.0086
198.244	0.0139
198.615	0.0289
198.986	0.0202
199.357	0.0309
199.728	0.0383
200.099	0.0228
200.47	0.0318
200.841	0.0315
201.212	0.016
201.582	0.0372
201.953	0.021
202.323	0.0279
202.694	0.0408
203.064	0.0046
203.434	0.0158
203.804	0.0087
204.174	0.016
204.544	0.0388
204.914	0.0193
205.284	0.0319
205.653	0.027
206.023	0.0179
206.393	0.024
206.762	0.0184
207.131	0.0324
207.501	0.0139
207.87	0.0166
208.239	0.0178
208.608	0.0297
208.977	0.0002
209.346	0.0156
209.715	0.0291
210.083	0.0242
210.452	0.0175
210.82	0.0266
211.189	0.0215
211.557	0.0352
211.925	0.009
212.294	0.0312
212.662	0.0325
213.03	0.0432
213.398	0.0162
213.766	0.0203
214.133	0.0382
214.501	0.0357
214.869	0.0204
215.236	0.0267
215.604	0.0456
215.971	0.053
216.338	0.0349
216.705	0.0325
217.072	0.0255
217.439	0.0495
217.806	0.0496
218.173	0.06
218.54	0.0562
218.907	0.0648
219.273	0.0679
219.64	0.0835
220.006	0.094
220.373	0.0935
220.739	0.1202
221.105	0.13
221.471	0.1325
221.837	0.1868
222.203	0.1977
222.569	0.1939
222.935	0.2091
223.3	0.2281
223.666	0.2379
224.031	0.2797
224.397	0.2895
224.762	0.3055
225.127	0.3478
225.493	0.364
225.858	0.396
226.223	0.4073
226.588	0.4153
226.952	0.4254
227.317	0.4692
227.682	0.4726
228.046	0.4724
228.411	0.5112
228.775	0.5267
229.14	0.5337
229.504	0.5308
229.868	0.5579
230.232	0.5664
230.596	0.5728
230.96	0.5951
231.324	0.5836
231.688	0.5905
232.052	0.6075
232.415	0.6024
232.779	0.5906
233.142	0.599
233.505	0.6071
233.869	0.6175
234.232	0.6059
234.595	0.6059
234.958	0.5995
235.321	0.6094
235.684	0.5877
236.047	0.5978
236.409	0.5878
236.772	0.5922
237.134	0.5866
237.497	0.5859
237.859	0.5865
238.222	0.5834
238.584	0.5673
238.946	0.5715
239.308	0.569
239.67	0.5599
240.032	0.5642
240.393	0.5573
240.755	0.5575
241.117	0.5561
241.478	0.5522
241.84	0.5411
242.201	0.5375
242.562	0.5374
242.924	0.5293
243.285	0.5254
243.646	0.517
244.007	0.5181
244.368	0.5246
244.728	0.5068
245.089	0.5134
245.45	0.5018
245.81	0.5058
246.171	0.5014
246.531	0.5
246.891	0.4971
247.252	0.4945
247.612	0.4954
247.972	0.4883
248.332	0.4854
248.692	0.4915
249.051	0.4891
249.411	0.4845
249.771	0.4808
250.13	0.4826
250.49	0.4803
250.849	0.4762
251.208	0.4814
251.568	0.4759
251.927	0.474
252.286	0.4741
252.645	0.4723
253.004	0.4702
253.363	0.4635
253.721	0.4709
254.08	0.466
254.439	0.464
254.797	0.4585
255.155	0.4622
255.514	0.4592
255.872	0.4603
256.23	0.4585
256.588	0.4617
256.946	0.4633
257.304	0.4585
257.662	0.4598
258.02	0.4535
258.377	0.4491
258.735	0.4507
259.093	0.4458
259.45	0.448
259.807	0.4491
260.165	0.449
260.522	0.4482
260.879	0.4417
261.236	0.4439
261.593	0.4405
261.95	0.4364
262.306	0.4409
262.663	0.4377
263.02	0.4375
263.376	0.4336
263.733	0.4299
264.089	0.4301
264.445	0.4291
264.802	0.4277
265.158	0.4234
265.514	0.4272
265.87	0.4255
266.226	0.4183
266.581	0.4227
266.937	0.4205
267.293	0.4146
267.648	0.4143
268.004	0.4165
268.359	0.4124
268.714	0.4051
269.07	0.4044
269.425	0.4067
269.78	0.4037
270.135	0.4028
270.49	0.4013
270.844	0.3981
271.199	0.3938
271.554	0.3922
271.908	0.3914
272.263	0.3886
272.617	0.3874
272.972	0.384
273.326	0.3831
273.68	0.3763
274.034	0.3781
274.388	0.3777
274.742	0.3736
275.096	0.3696
275.45	0.3676
275.803	0.3665
276.157	0.3638
276.51	0.3584
276.864	0.355
277.217	0.3581
277.571	0.3531
277.924	0.3475
278.277	0.3458
278.63	0.3424
278.983	0.341
279.336	0.3381
279.688	0.3327
280.041	0.3298
280.394	0.3239
280.746	0.3218
281.099	0.3229
281.451	0.3172
281.803	0.3169
282.156	0.3108
282.508	0.3093
282.86	0.3059
283.212	0.3041
283.564	0.3011
283.916	0.2935
284.267	0.2909
284.619	0.291
284.971	0.2884
285.322	0.288
285.673	0.2822
286.025	0.2796
286.376	0.2745
286.727	0.2715
287.078	0.2697
287.429	0.2672
287.78	0.2627
288.131	0.2615
288.482	0.2567
288.833	0.2528
289.183	0.2509
289.534	0.2482
289.884	0.2456
290.235	0.2412
290.585	0.2403
290.935	0.2361
291.285	0.2334
291.635	0.229
291.985	0.2275
292.335	0.2237
292.685	0.2215
293.035	0.2166
293.384	0.2148
293.734	0.2112
294.083	0.2078
294.433	0.2065
294.782	0.2031
295.131	0.201
295.48	0.1985
295.829	0.195
296.179	0.1924
296.527	0.1897
296.876	0.1867
297.225	0.1831
297.574	0.1807
297.922	0.1791
298.271	0.1754
298.619	0.1729
298.968	0.1713
299.316	0.1688
299.664	0.1655
300.012	0.1631
300.36	0.161
300.708	0.1583
301.056	0.156
301.404	0.1544
301.752	0.152
302.099	0.149
302.447	0.1485
302.794	0.1459
303.142	0.1433
303.489	0.1412
303.836	0.1405
304.183	0.1395
304.531	0.1368
304.878	0.1341
305.224	0.1336
305.571	0.1319
305.918	0.13
306.265	0.1278
306.611	0.1267
306.958	0.1259
307.304	0.1241
307.651	0.1236
307.997	0.1218
308.343	0.1208
308.689	0.1205
309.035	0.1194
309.381	0.1179
309.727	0.1182
310.073	0.116
310.419	0.1161
310.764	0.1159
311.11	0.1149
311.455	0.1141
311.801	0.1135
312.146	0.1128
312.491	0.1124
312.837	0.1118
313.182	0.1114
313.527	0.1108
313.872	0.1104
314.216	0.1115
314.561	0.1106
314.906	0.1102
315.251	0.1103
315.595	0.1112
315.94	0.1102
316.284	0.1097
316.628	0.1102
316.972	0.1109
317.317	0.1111
317.661	0.1107
318.005	0.1102
318.348	0.1109
318.692	0.1109
319.036	0.1112
319.38	0.112
319.723	0.1116
320.067	0.113
320.41	0.1134
320.754	0.113
321.097	0.1129
321.44	0.1145
321.783	0.1157
322.126	0.1161
322.469	0.1161
322.812	0.1171
323.155	0.1177
323.498	0.1179
323.84	0.1184
324.183	0.1199
324.525	0.1203
324.868	0.1218
325.21	0.1219
325.552	0.1227
325.894	0.1242
326.236	0.1242
326.578	0.1253
326.92	0.1265
327.262	0.1272
327.604	0.1279
327.946	0.1288
328.287	0.1286
328.629	0.1305
328.97	0.1315
329.312	0.1324
329.653	0.1329
329.994	0.1343
330.335	0.1347
330.676	0.1358
331.017	0.137
331.358	0.1378
331.699	0.1401
332.04	0.1403
332.38	0.1409
332.721	0.1424
333.061	0.1428
333.402	0.1445
333.742	0.1452
334.083	0.1462
334.423	0.1463
334.763	0.1479
335.103	0.1484
335.443	0.1484
335.783	0.1498
336.123	0.1508
336.462	0.1519
336.802	0.1525
337.141	0.1534
337.481	0.1537
337.82	0.1551
338.16	0.1557
338.499	0.1568
338.838	0.1574
339.177	0.1577
339.516	0.1584
339.855	0.1595
340.194	0.1613
340.533	0.1602
340.872	0.1606
341.21	0.1619
341.549	0.1623
341.887	0.1628
342.226	0.1623
342.564	0.1637
342.902	0.1643
343.24	0.1639
343.578	0.1654
343.916	0.1652
344.254	0.1654
344.592	0.1655
344.93	0.1662
345.268	0.1651
345.605	0.1657
345.943	0.1658
346.28	0.1662
346.618	0.1663
346.955	0.1671
347.292	0.1672
347.629	0.1673
347.966	0.1667
348.303	0.1673
348.64	0.1676
348.977	0.167
349.314	0.1674
349.65	0.167
349.987	0.1684
350.324	0.1669
350.66	0.1674
350.996	0.1666
351.333	0.166
351.669	0.1659
352.005	0.1659
352.341	0.1654
352.677	0.1648
353.013	0.1636
353.349	0.1639
353.685	0.1629
354.02	0.1616
354.356	0.1615
354.691	0.1605
355.027	0.1608
355.362	0.1593
355.697	0.1591
356.033	0.159
356.368	0.158
356.703	0.1567
357.038	0.157
357.373	0.156
357.707	0.1558
358.042	0.155
358.377	0.1541
358.711	0.1537
359.046	0.1524
359.38	0.1525
359.715	0.1519
360.049	0.1503
360.383	0.1494
360.717	0.1484
361.051	0.1473
361.385	0.1471
361.719	0.1459
362.053	0.1456
362.387	0.1434
362.72	0.1432
363.054	0.1417
363.387	0.1398
363.721	0.1404
364.054	0.1389
364.387	0.1375
364.721	0.1355
365.054	0.1348
365.387	0.1337
365.72	0.1324
366.053	0.1318
366.385	0.1299
366.718	0.1293
367.051	0.1283
367.383	0.1271
367.716	0.1271
368.048	0.126
368.381	0.1256
368.713	0.1237
369.045	0.1233
369.377	0.1225
369.709	0.122
370.041	0.1198
370.373	0.1195
370.705	0.1185
371.037	0.1172
371.368	0.1165
371.7	0.115
372.031	0.1139
372.363	0.1129
372.694	0.1124
373.025	0.111
373.356	0.1091
373.688	0.1079
374.019	0.1069
374.35	0.1051
374.68	0.1039
375.011	0.1023
375.342	0.1017
375.673	0.0999
376.003	0.0985
376.334	0.0978
376.664	0.097
376.995	0.0955
377.325	0.094
377.655	0.0923
377.985	0.0916
378.315	0.0915
378.645	0.0899
378.975	0.0898
379.305	0.0877
379.635	0.0885
379.964	0.087
380.294	0.0867
380.623	0.085
380.953	0.0836
381.282	0.0839
381.611	0.0826
381.941	0.0823
382.27	0.0803
382.599	0.0805
382.928	0.0787
383.257	0.0781
383.585	0.0769
383.914	0.0756
384.243	0.0746
384.571	0.0741
384.9	0.0728
385.228	0.0714
385.557	0.0704
385.885	0.0693
386.213	0.0689
386.541	0.0674
386.869	0.067
387.197	0.0655
387.525	0.064
387.853	0.0629
388.181	0.062
388.508	0.0612
388.836	0.0602
389.164	0.0598
389.491	0.0579
389.818	0.0574
390.146	0.0571
390.473	0.056
390.8	0.0561
391.127	0.054
391.454	0.0536
391.781	0.0533
392.108	0.0529
392.435	0.0512
392.761	0.0513
393.088	0.0512
393.415	0.0504
393.741	0.0505
394.067	0.0506
394.394	0.0488
394.72	0.0478
395.046	0.0476
395.372	0.0468
395.698	0.0467
396.024	0.0454
396.35	0.0454
396.676	0.0446
397.001	0.044
397.327	0.0429
397.653	0.0419
397.978	0.042
398.303	0.0407
398.629	0.0403
398.954	0.0403
399.279	0.041
399.604	0.0394
399.929	0.0393
400.254	0.0383
400.579	0.0379
400.904	0.0374
401.229	0.0368
401.553	0.0375
401.878	0.037
402.202	0.0368
402.527	0.0358
402.851	0.0356
403.175	0.0349
403.5	0.0352
403.824	0.0341
404.148	0.0344
404.472	0.0336
404.796	0.0339
405.119	0.0341
405.443	0.0337
405.767	0.0335
406.09	0.0333
406.414	0.0326
406.737	0.0331
407.061	0.0334
407.384	0.0326
407.707	0.0324
408.03	0.0321
408.353	0.0317
408.676	0.0316
408.999	0.032
409.322	0.0317
409.645	0.0314
409.968	0.0315
410.29	0.0319
410.613	0.0323
410.935	0.0307
411.258	0.0314
411.58	0.0306
411.902	0.031
412.224	0.031
412.546	0.031
412.868	0.0318
413.19	0.031
413.512	0.0315
413.834	0.0305
414.156	0.0311
414.477	0.0308
414.799	0.0306
415.121	0.0302
415.442	0.0303
415.763	0.0303
416.085	0.0302
416.406	0.0302
416.727	0.0313
417.048	0.031
417.369	0.0311
417.69	0.0302
418.011	0.0307
418.331	0.0304
418.652	0.0307
418.973	0.0303
419.293	0.0308
419.614	0.0296
419.934	0.0307
420.254	0.0308
420.574	0.0295
420.895	0.0302
421.215	0.0301
421.535	0.03
421.855	0.0294
422.174	0.0287
422.494	0.0297
422.814	0.0301
423.134	0.03
423.453	0.03
423.773	0.0306
424.092	0.0304
424.411	0.0297
424.731	0.0299
425.05	0.0302
425.369	0.0297
425.688	0.0303
426.007	0.0303
426.326	0.0307
426.644	0.0302
426.963	0.0298
427.282	0.0302
427.6	0.0306
427.919	0.0299
428.237	0.0309
428.556	0.0302
428.874	0.03
429.192	0.0299
429.51	0.0295
429.828	0.0299
430.146	0.0302
430.464	0.0298
430.782	0.0296
431.1	0.0293
431.418	0.0297
431.735	0.0299
432.053	0.0302
432.37	0.0306
432.688	0.0292
433.005	0.0295
433.322	0.0306
433.639	0.0304
433.957	0.0296
434.274	0.0309
434.591	0.0301
434.907	0.0299
435.224	0.0302
435.541	0.0298
435.858	0.0303
436.174	0.0301
436.491	0.0297
436.807	0.0295
437.124	0.0296
437.44	0.0297
437.756	0.0302
438.072	0.0291
438.388	0.0291
438.704	0.0292
439.02	0.0286
439.336	0.0291
439.652	0.03
439.968	0.0296
440.283	0.0292
440.599	0.0293
440.914	0.029
441.23	0.0296
441.545	0.0289
441.86	0.0294
442.175	0.0291
442.491	0.0286
442.806	0.0292
443.121	0.0284
443.435	0.0281
443.75	0.0286
444.065	0.0288
444.38	0.0289
444.694	0.0284
445.009	0.028
445.323	0.0287
445.638	0.0281
445.952	0.0286
446.266	0.0272
446.58	0.0269
446.894	0.0279
447.208	0.0275
447.522	0.0268
447.836	0.027
448.15	0.0272
448.464	0.0268
448.777	0.0276
449.091	0.0265
449.404	0.0265
449.718	0.0275
450.031	0.0259
450.345	0.0272
450.658	0.0267
450.971	0.0268
451.284	0.0263
451.597	0.0271
451.91	0.0267
452.223	0.0269
452.535	0.0263
452.848	0.0262
453.161	0.0259
453.473	0.0266
453.786	0.0257
454.098	0.0261
454.411	0.0257
454.723	0.0268
455.035	0.0252
455.347	0.0256
455.659	0.0257
455.971	0.0262
456.283	0.026
456.595	0.026
456.907	0.0256
457.218	0.026
457.53	0.0251
457.841	0.0242
458.153	0.0248
458.464	0.0247
458.776	0.0249
459.087	0.0243
459.398	0.0244
459.709	0.0229
460.02	0.0243
460.331	0.0244
460.642	0.0243
460.953	0.0233
461.263	0.0239
461.574	0.0231
461.885	0.0242
462.195	0.0233
462.506	0.0242
462.816	0.0242
463.126	0.023
463.437	0.0229
463.747	0.0224
464.057	0.022
464.367	0.0213
464.677	0.0221
464.987	0.0219
465.296	0.0213
465.606	0.0221
465.916	0.0209
466.225	0.0211
466.535	0.0215
466.844	0.0211
467.154	0.0214
467.463	0.0219
467.772	0.0206
468.081	0.0209
468.39	0.0217
468.699	0.0214
469.008	0.0209
469.317	0.0208
469.626	0.0211
469.935	0.0204
470.243	0.0216
470.552	0.0201
470.86	0.0209
471.169	0.0198
471.477	0.0199
471.785	0.0194
472.093	0.0189
472.402	0.0194
472.71	0.0183
473.018	0.0183
473.326	0.0188
473.633	0.019
473.941	0.0184
474.249	0.0186
474.556	0.018
474.864	0.0184
475.171	0.0184
475.479	0.0176
475.786	0.0188
476.094	0.0181
476.401	0.0172
476.708	0.0169
477.015	0.0166
477.322	0.0163
477.629	0.0162
477.936	0.0162
478.242	0.0166
478.549	0.0168
478.856	0.0171
479.162	0.017
479.469	0.0164
479.775	0.0162
480.081	0.0144
480.388	0.0156
480.694	0.0153
481	0.0154
481.306	0.0154
481.612	0.0164
481.918	0.0161
482.224	0.0153
482.53	0.0149
482.835	0.0155
483.141	0.0154
483.446	0.0153
483.752	0.014
484.057	0.0138
484.363	0.0138
484.668	0.0147
484.973	0.0133
485.278	0.0128
485.583	0.0131
485.888	0.0126
486.193	0.0108
486.498	0.0133
486.803	0.0132
487.107	0.0118
487.412	0.0113
487.717	0.0115
488.021	0.0125
488.325	0.0121
488.63	0.012
488.934	0.0118
489.238	0.0111
489.542	0.0114
489.846	0.0114
490.15	0.0113
490.454	0.0121
490.758	0.0114
491.062	0.0111
491.366	0.0108
491.669	0.0107
491.973	0.0108
492.276	0.0111
492.58	0.0099
492.883	0.0111
493.186	0.0098
493.489	0.0112
493.792	0.0091
494.096	0.0092
494.399	0.0095
494.701	0.0092
495.004	0.0086
495.307	0.0089
495.61	0.0092
495.912	0.0099
496.215	0.0093
496.517	0.0098
496.82	0.0085
497.122	0.0089
497.424	0.0089
497.727	0.009
498.029	0.0091
498.331	0.0079
498.633	0.0085
498.935	0.0085
499.237	0.0083
499.538	0.008
499.84	0.0084
500.142	0.0086
500.443	0.0085
500.745	0.0085
501.046	0.008
501.348	0.0074
501.649	0.007
501.95	0.007
502.251	0.0081
502.552	0.0068
502.853	0.0074
503.154	0.0077
503.455	0.007
503.756	0.0074
504.057	0.0063
504.357	0.0071
504.658	0.0062
504.958	0.0068
505.259	0.0057
505.559	0.0064
505.859	0.0058
506.16	0.0061
506.46	0.0064
506.76	0.0059
507.06	0.0055
507.36	0.0055
507.66	0.0068
507.96	0.0074
508.259	0.0053
508.559	0.0058
508.859	0.0068
509.158	0.006
509.457	0.0053
509.757	0.0052
510.056	0.0055
510.355	0.005
510.655	0.0051
510.954	0.0044
511.253	0.0049
511.552	0.006
511.851	0.0057
512.149	0.0054
512.448	0.0045
512.747	0.0055
513.045	0.0043
513.344	0.0058
513.642	0.0049
513.941	0.0051
514.239	0.004
514.537	0.0047
514.836	0.0055
515.134	0.005
515.432	0.005
515.73	0.0039
516.028	0.0047
516.326	0.004
516.623	0.0039
516.921	0.0038
517.219	0.0048
517.516	0.0041
517.814	0.0051
518.111	0.0048
518.409	0.0051
518.706	0.0042
519.003	0.0037
519.3	0.004
519.597	0.0045
519.894	0.0039
520.191	0.0052
520.488	0.004
520.785	0.0038
521.082	0.0049
521.378	0.005
521.675	0.0034
521.971	0.0045
522.268	0.0052
522.564	0.0039
522.861	0.005
523.157	0.0034
523.453	0.0041
523.749	0.0037
524.045	0.0035
524.341	0.0046
524.637	0.0038
524.933	0.0053
525.229	0.0038
525.524	0.0034
525.82	0.0035
526.115	0.0035
526.411	0.0035
526.706	0.0024
527.002	0.003
527.297	0.0024
527.592	0.0046
527.887	0.0027
528.182	0.0027
528.477	0.0046
528.772	0.0029
529.067	0.0035
529.362	0.0045
529.657	0.0048
529.951	0.0037
530.246	0.0026
530.54	0.0037
530.835	0.0037
531.129	0.0044
531.423	0.0032
531.718	0.0035
532.012	0.0034
532.306	0.0043
532.6	0.0029
532.894	0.0033
533.188	0.0026
533.482	0.0028
533.775	0.0028
534.069	0.0029
534.363	0.0029
534.656	0.003
534.95	0.0031
535.243	0.0029
535.536	0.003
535.83	0.0034
536.123	0.0018
536.416	0.0032
536.709	0.004
537.002	0.0034
537.295	0.0027
537.588	0.0033
537.881	0.0031
538.173	0.0024
538.466	0.0033
538.759	0.003
539.051	0.003
539.344	0.0034
539.636	0.0033
539.928	0.0047
540.22	0.0017
540.513	0.0034
540.805	0.0045
541.097	0.004
541.389	0.0026
541.681	0.0038
541.972	0.0025
542.264	0.0042
542.556	0.0029
542.847	0.003
543.139	0.003
543.431	0.0016
543.722	0.002
544.013	0.003
544.305	0.0031
544.596	0.0034
544.887	0.003
545.178	0.0045
545.469	0.0034
545.76	0.0038
546.051	0.0029
546.342	0.0024
546.632	0.0034
546.923	0.0031
547.214	0.0026
547.504	0.0041
547.795	0.0025
548.085	0.0029
548.375	0.0043
548.666	0.005
548.956	0.0037
549.246	0.0053
549.536	0.0045
549.826	0.0044
550.116	0.004
550.406	0.0042
550.695	0.0043
550.985	0.0048
551.275	0.005
551.564	0.0048
551.854	0.005
552.143	0.005
552.433	0.0038
552.722	0.0045
553.011	0.0041
553.3	0.0042
553.589	0.0047
553.879	0.0041
554.167	0.0044
554.456	0.0036
554.745	0.0037
555.034	0.0053
555.323	0.0038
555.611	0.004
555.9	0.0041
556.188	0.0031
556.477	0.0034
556.765	0.0049
557.053	0.0042
557.342	0.0036
557.63	0.0039
557.918	0.0043
558.206	0.0056
558.494	0.005
558.782	0.0044
559.069	0.0052
559.357	0.0039
559.645	0.0049
559.932	0.0035
560.22	0.0041
560.507	0.0032
560.795	0.0023
561.082	0.0022
561.37	0.0032
561.657	0.0022
561.944	0.0032
562.231	0.0034
562.518	0.0038
562.805	0.0046
563.092	0.0028
563.379	0.0032
563.665	0.0037
563.952	0.0041
564.239	0.0046
564.525	0.0045
564.811	0.0053
565.098	0.0037
565.384	0.004
565.67	0.004
565.957	0.0049
566.243	0.0056
566.529	0.0045
566.815	0.005
567.101	0.0042
567.387	0.0038
567.672	0.0045
567.958	0.0034
568.244	0.0023
568.529	0.0037
568.815	0.0041
569.1	0.0027
569.386	0.0029
569.671	0.0033
569.956	0.0032
570.242	0.0032
570.527	0.0022
570.812	0.0025
571.097	0.0023
571.382	0.0018
571.666	0.0025
571.951	0.0028
572.236	0.0024
572.521	0.0037
572.805	0.004
573.09	0.0035
573.374	0.0014
573.659	0.002
573.943	0.0025
574.227	0.0028
574.511	0.0021
574.795	0.0029
575.079	0.0031
575.363	0.0029
575.647	0.0031
575.931	0.0038
576.215	0.0033
576.499	0.002
576.782	0.0022
577.066	0.0026
577.349	0.0036
577.633	0.0032
577.916	0.0021
578.2	0.0026
578.483	0.0032
578.766	0.0044
579.049	0.003
579.332	0.0034
579.615	0.0021
579.898	0.0018
580.181	0.0035
580.464	0.003
580.746	0.003
581.029	0.0025
581.312	0.0013
581.594	0.0007
581.877	0.0028
582.159	0.0042
582.441	0.0025
582.724	0.004
583.006	0.0043
583.288	0.0037
583.57	0.0036
583.852	0.0034
584.134	0.0036
584.416	0.0029
584.697	0.0033
584.979	0.0017
585.261	0.002
585.542	0.0033
585.824	0.0035
586.105	0.0027
586.387	0.0039
586.668	0.0035
586.949	0.004
587.231	0.0029
587.512	0.0031
587.793	0.0029
588.074	0.0036
588.355	0.0041
588.636	0.0029
588.916	0.0034
589.197	0.0036
589.478	0.0037
589.758	0.0018
590.039	0.0021
590.319	0.0022
590.6	0.0028
590.88	0.0029
591.16	0.0033
591.441	0.0036
591.721	0.0027
592.001	0.0027
592.281	0.0034
592.561	0.0027
592.841	0.002
593.12	0.0021
593.4	0.0032
593.68	0.0028
593.959	0.003
594.239	0.0036
594.518	0.0049
594.798	0.0039
595.077	0.0029
595.356	0.0034
595.636	0.0037
595.915	0.003
596.194	0.0043
596.473	0.0039
596.752	0.0028
597.031	0.003
