Data from 03 0.2 mM BQDS 0.4 mM K2Cr2O7 1 M H2SO4 5 min_Absorbance_03-12-42-364.txt Node
Date: Wed Dec 08 03:12:42 EST 2021
User: kwabilab-user
Spectrometer: HDX00518
Trigger mode: 0
Integration Time (sec): 5.000000E-2
Scans to average: 50
Nonlinearity correction enabled: false
Boxcar width: 0
Storing dark spectrum: false
XAxis mode: Wavelengths
Number of Pixels in Spectrum: 2068
>>>>>Begin Spectral Data<<<<<
195.27	-0.088
195.642	0.0098
196.014	0.0259
196.386	-0.0698
196.758	-0.0525
197.129	-0.0293
197.501	0.0116
197.872	0.0593
198.244	0.0852
198.615	0.0915
198.986	0.087
199.357	0.0737
199.728	0.0845
200.099	0.0856
200.47	0.0729
200.841	0.0765
201.212	0.0836
201.582	0.0637
201.953	0.094
202.323	0.0703
202.694	0.0799
203.064	0.0926
203.434	0.0625
203.804	0.0869
204.174	0.0902
204.544	0.0832
204.914	0.0747
205.284	0.0782
205.653	0.0893
206.023	0.0728
206.393	0.0761
206.762	0.0847
207.131	0.075
207.501	0.0856
207.87	0.0903
208.239	0.0923
208.608	0.0646
208.977	0.0893
209.346	0.0859
209.715	0.0844
210.083	0.0957
210.452	0.0768
210.82	0.098
211.189	0.1012
211.557	0.1025
211.925	0.1101
212.294	0.1061
212.662	0.1203
213.03	0.1288
213.398	0.1235
213.766	0.1496
214.133	0.1584
214.501	0.1488
214.869	0.1571
215.236	0.1889
215.604	0.1877
215.971	0.2053
216.338	0.2287
216.705	0.2399
217.072	0.2722
217.439	0.277
217.806	0.309
218.173	0.3369
218.54	0.3571
218.907	0.3853
219.273	0.4284
219.64	0.4743
220.006	0.4919
220.373	0.5396
220.739	0.5757
221.105	0.6263
221.471	0.6403
221.837	0.6843
222.203	0.7363
222.569	0.7584
222.935	0.7892
223.3	0.8144
223.666	0.839
224.031	0.872
224.397	0.8775
224.762	0.9065
225.127	0.9358
225.493	0.9407
225.858	0.958
226.223	0.9537
226.588	0.9757
226.952	0.9794
227.317	0.9908
227.682	0.979
228.046	0.9731
228.411	0.9787
228.775	0.9771
229.14	0.9781
229.504	0.9711
229.868	0.9602
230.232	0.9552
230.596	0.9555
230.96	0.9471
231.324	0.9356
231.688	0.9279
232.052	0.9288
232.415	0.9143
232.779	0.9054
233.142	0.8986
233.505	0.8918
233.869	0.8815
234.232	0.8739
234.595	0.8626
234.958	0.8551
235.321	0.8446
235.684	0.8347
236.047	0.8252
236.409	0.8175
236.772	0.8086
237.134	0.8038
237.497	0.7892
237.859	0.782
238.222	0.7753
238.584	0.7713
238.946	0.7615
239.308	0.7531
239.67	0.7465
240.032	0.7374
240.393	0.733
240.755	0.7239
241.117	0.7203
241.478	0.7123
241.84	0.7048
242.201	0.7004
242.562	0.6927
242.924	0.6883
243.285	0.6803
243.646	0.6765
244.007	0.6754
244.368	0.668
244.728	0.6644
245.089	0.6623
245.45	0.6562
245.81	0.6537
246.171	0.6488
246.531	0.644
246.891	0.6422
247.252	0.6369
247.612	0.6367
247.972	0.6323
248.332	0.6318
248.692	0.6291
249.051	0.6254
249.411	0.623
249.771	0.6199
250.13	0.619
250.49	0.6176
250.849	0.6165
251.208	0.6144
251.568	0.6113
251.927	0.6099
252.286	0.6093
252.645	0.6092
253.004	0.6038
253.363	0.6016
253.721	0.6054
254.08	0.6023
254.439	0.5999
254.797	0.598
255.155	0.6
255.514	0.5981
255.872	0.597
256.23	0.5956
256.588	0.5939
256.946	0.5926
257.304	0.5922
257.662	0.5905
258.02	0.5911
258.377	0.5872
258.735	0.5872
259.093	0.588
259.45	0.5855
259.807	0.5833
260.165	0.583
260.522	0.5809
260.879	0.5802
261.236	0.5812
261.593	0.5779
261.95	0.5741
262.306	0.5756
262.663	0.5724
263.02	0.5716
263.376	0.5703
263.733	0.5664
264.089	0.5661
264.445	0.5641
264.802	0.5617
265.158	0.5603
265.514	0.5605
265.87	0.5557
266.226	0.5533
266.581	0.5534
266.937	0.5493
267.293	0.5485
267.648	0.5474
268.004	0.5413
268.359	0.5395
268.714	0.537
269.07	0.535
269.425	0.5317
269.78	0.5322
270.135	0.5273
270.49	0.5257
270.844	0.5242
271.199	0.5197
271.554	0.5166
271.908	0.514
272.263	0.5097
272.617	0.5082
272.972	0.5048
273.326	0.5026
273.68	0.4979
274.034	0.4954
274.388	0.4914
274.742	0.4889
275.096	0.4847
275.45	0.4824
275.803	0.4785
276.157	0.4734
276.51	0.4694
276.864	0.4674
277.217	0.4626
277.571	0.4578
277.924	0.4535
278.277	0.4503
278.63	0.4477
278.983	0.4427
279.336	0.4397
279.688	0.4358
280.041	0.433
280.394	0.4273
280.746	0.4239
281.099	0.4192
281.451	0.4146
281.803	0.4103
282.156	0.4084
282.508	0.4045
282.86	0.3984
283.212	0.3953
283.564	0.3914
283.916	0.3876
284.267	0.3825
284.619	0.3792
284.971	0.3749
285.322	0.3712
285.673	0.3671
286.025	0.3639
286.376	0.3588
286.727	0.3557
287.078	0.3513
287.429	0.3486
287.78	0.3425
288.131	0.3397
288.482	0.3346
288.833	0.3312
289.183	0.3273
289.534	0.3241
289.884	0.3197
290.235	0.3164
290.585	0.3118
290.935	0.3083
291.285	0.3043
291.635	0.3008
291.985	0.2965
292.335	0.2933
292.685	0.2892
293.035	0.2861
293.384	0.2824
293.734	0.2782
294.083	0.2738
294.433	0.2705
294.782	0.2675
295.131	0.2643
295.48	0.2604
295.829	0.2567
296.179	0.2521
296.527	0.2494
296.876	0.2467
297.225	0.2439
297.574	0.2395
297.922	0.2366
298.271	0.2336
298.619	0.2299
298.968	0.228
299.316	0.2248
299.664	0.2213
300.012	0.2186
300.36	0.2154
300.708	0.2128
301.056	0.2106
301.404	0.2079
301.752	0.2044
302.099	0.2031
302.447	0.2005
302.794	0.198
303.142	0.1964
303.489	0.1931
303.836	0.1912
304.183	0.1895
304.531	0.1878
304.878	0.1857
305.224	0.1833
305.571	0.1824
305.918	0.1804
306.265	0.1785
306.611	0.1771
306.958	0.1759
307.304	0.1749
307.651	0.1732
307.997	0.1722
308.343	0.1706
308.689	0.1697
309.035	0.1685
309.381	0.1677
309.727	0.1666
310.073	0.1664
310.419	0.1648
310.764	0.1639
311.11	0.1647
311.455	0.1637
311.801	0.1628
312.146	0.1627
312.491	0.1618
312.837	0.1619
313.182	0.1614
313.527	0.1612
313.872	0.161
314.216	0.161
314.561	0.1606
314.906	0.1605
315.251	0.1614
315.595	0.1605
315.94	0.1607
316.284	0.1607
316.628	0.1612
316.972	0.1607
317.317	0.1615
317.661	0.1625
318.005	0.1625
318.348	0.1631
318.692	0.1635
319.036	0.1635
319.38	0.1645
319.723	0.1646
320.067	0.1655
320.41	0.1665
320.754	0.1666
321.097	0.1677
321.44	0.1685
321.783	0.1689
322.126	0.1697
322.469	0.1712
322.812	0.1722
323.155	0.173
323.498	0.1741
323.84	0.1753
324.183	0.1759
324.525	0.177
324.868	0.1781
325.21	0.1801
325.552	0.1806
325.894	0.1816
326.236	0.1826
326.578	0.1836
326.92	0.1854
327.262	0.1858
327.604	0.187
327.946	0.1889
328.287	0.1897
328.629	0.1912
328.97	0.192
329.312	0.1939
329.653	0.1952
329.994	0.1957
330.335	0.1979
330.676	0.1988
331.017	0.1996
331.358	0.2018
331.699	0.2033
332.04	0.2043
332.38	0.2054
332.721	0.2081
333.061	0.2075
333.402	0.2098
333.742	0.2109
334.083	0.213
334.423	0.2136
334.763	0.2139
335.103	0.2164
335.443	0.2166
335.783	0.2178
336.123	0.2183
336.462	0.2199
336.802	0.2211
337.141	0.2224
337.481	0.2235
337.82	0.224
338.16	0.2248
338.499	0.2258
338.838	0.227
339.177	0.2285
339.516	0.2295
339.855	0.2307
340.194	0.2317
340.533	0.2323
340.872	0.2332
341.21	0.2346
341.549	0.2355
341.887	0.2355
342.226	0.2364
342.564	0.2363
342.902	0.237
343.24	0.237
343.578	0.2372
343.916	0.238
344.254	0.2384
344.592	0.2387
344.93	0.2389
345.268	0.2394
345.605	0.2392
345.943	0.2395
346.28	0.2396
346.618	0.2397
346.955	0.2399
347.292	0.2398
347.629	0.2407
347.966	0.2403
348.303	0.2405
348.64	0.2405
348.977	0.2405
349.314	0.2407
349.65	0.2407
349.987	0.2407
350.324	0.2398
350.66	0.2395
350.996	0.2397
351.333	0.2387
351.669	0.2376
352.005	0.2376
352.341	0.2363
352.677	0.2356
353.013	0.2348
353.349	0.2346
353.685	0.2331
354.02	0.2326
354.356	0.2315
354.691	0.2295
355.027	0.2295
355.362	0.2275
355.697	0.2269
356.033	0.2258
356.368	0.2254
356.703	0.2241
357.038	0.2236
357.373	0.2225
357.707	0.2221
358.042	0.2207
358.377	0.2194
358.711	0.2188
359.046	0.2181
359.38	0.2164
359.715	0.2149
360.049	0.2152
360.383	0.2139
360.717	0.2124
361.051	0.2098
361.385	0.2094
361.719	0.2074
362.053	0.2066
362.387	0.2038
362.72	0.2022
363.054	0.2005
363.387	0.199
363.721	0.1973
364.054	0.1949
364.387	0.1936
364.721	0.1924
365.054	0.1901
365.387	0.1884
365.72	0.1872
366.053	0.1854
366.385	0.1834
366.718	0.1827
367.051	0.1811
367.383	0.179
367.716	0.1789
368.048	0.1771
368.381	0.1752
368.713	0.1746
369.045	0.1733
369.377	0.1717
369.709	0.1707
370.041	0.1688
370.373	0.1681
370.705	0.1662
371.037	0.1642
371.368	0.1624
371.7	0.1616
372.031	0.1602
372.363	0.1583
372.694	0.1564
373.025	0.1539
373.356	0.1526
373.688	0.1498
374.019	0.1471
374.35	0.1466
374.68	0.1446
375.011	0.1424
375.342	0.1403
375.673	0.1389
376.003	0.1372
376.334	0.135
376.664	0.1338
376.995	0.1319
377.325	0.1306
377.655	0.1295
377.985	0.128
378.315	0.1271
378.645	0.1248
378.975	0.1231
379.305	0.1226
379.635	0.1212
379.964	0.1197
380.294	0.1181
380.623	0.1174
380.953	0.1164
381.282	0.1147
381.611	0.1132
381.941	0.112
382.27	0.1104
382.599	0.1086
382.928	0.1078
383.257	0.1064
383.585	0.1054
383.914	0.1034
384.243	0.1025
384.571	0.1003
384.9	0.0988
385.228	0.0968
385.557	0.0956
385.885	0.0947
386.213	0.0926
386.541	0.0914
386.869	0.0897
387.197	0.0881
387.525	0.0863
387.853	0.0847
388.181	0.0837
388.508	0.0827
388.836	0.0814
389.164	0.0808
389.491	0.079
389.818	0.0778
390.146	0.0766
390.473	0.0751
390.8	0.0742
391.127	0.0728
391.454	0.0723
391.781	0.0714
392.108	0.0701
392.435	0.0689
392.761	0.0681
393.088	0.0677
393.415	0.0665
393.741	0.0671
394.067	0.0651
394.394	0.0645
394.72	0.0639
395.046	0.0626
395.372	0.0612
395.698	0.0604
396.024	0.0602
396.35	0.0594
396.676	0.0585
397.001	0.058
397.327	0.0565
397.653	0.0551
397.978	0.0545
398.303	0.0543
398.629	0.053
398.954	0.0527
399.279	0.0522
399.604	0.052
399.929	0.0511
400.254	0.0504
400.579	0.0501
400.904	0.0487
401.229	0.0486
401.553	0.0477
401.878	0.0466
402.202	0.0461
402.527	0.0464
402.851	0.0456
403.175	0.0455
403.5	0.0451
403.824	0.0453
404.148	0.0448
404.472	0.0441
404.796	0.0431
405.119	0.0433
405.443	0.043
405.767	0.0421
406.09	0.0422
406.414	0.0425
406.737	0.042
407.061	0.0415
407.384	0.0416
407.707	0.0412
408.03	0.0415
408.353	0.0415
408.676	0.041
408.999	0.0405
409.322	0.0412
409.645	0.0412
409.968	0.0403
410.29	0.0408
410.613	0.0402
410.935	0.0401
411.258	0.0401
411.58	0.0399
411.902	0.0405
412.224	0.0402
412.546	0.0399
412.868	0.04
413.19	0.0405
413.512	0.0398
413.834	0.04
414.156	0.0401
414.477	0.0401
414.799	0.0402
415.121	0.0401
415.442	0.0403
415.763	0.0402
416.085	0.0398
416.406	0.0402
416.727	0.04
417.048	0.0398
417.369	0.0401
417.69	0.0393
418.011	0.04
418.331	0.0402
418.652	0.0407
418.973	0.0402
419.293	0.0409
419.614	0.0406
419.934	0.0401
420.254	0.0403
420.574	0.0401
420.895	0.0404
421.215	0.0405
421.535	0.0393
421.855	0.0402
422.174	0.0397
422.494	0.0404
422.814	0.0409
423.134	0.0402
423.453	0.0406
423.773	0.0406
424.092	0.0405
424.411	0.0405
424.731	0.0405
425.05	0.0412
425.369	0.0411
425.688	0.0414
426.007	0.0412
426.326	0.0415
426.644	0.0417
426.963	0.0416
427.282	0.042
427.6	0.0416
427.919	0.0417
428.237	0.0419
428.556	0.0421
428.874	0.0416
429.192	0.0416
429.51	0.0415
429.828	0.0424
430.146	0.0423
430.464	0.0421
430.782	0.0416
431.1	0.0422
431.418	0.0419
431.735	0.0419
432.053	0.0422
432.37	0.0428
432.688	0.0415
433.005	0.0418
433.322	0.0423
433.639	0.0423
433.957	0.0419
434.274	0.0425
434.591	0.0421
434.907	0.0424
435.224	0.0423
435.541	0.0427
435.858	0.0434
436.174	0.0424
436.491	0.0422
436.807	0.0422
437.124	0.0418
437.44	0.0418
437.756	0.0421
438.072	0.0415
438.388	0.0425
438.704	0.0423
439.02	0.0421
439.336	0.0414
439.652	0.0417
439.968	0.0426
440.283	0.0418
440.599	0.0426
440.914	0.0425
441.23	0.0419
441.545	0.0424
441.86	0.042
442.175	0.0418
442.491	0.0421
442.806	0.0416
443.121	0.0422
443.435	0.0413
443.75	0.0415
444.065	0.0416
444.38	0.0421
444.694	0.0415
445.009	0.0415
445.323	0.0414
445.638	0.0414
445.952	0.0414
446.266	0.0412
446.58	0.0421
446.894	0.0415
447.208	0.0422
447.522	0.0417
447.836	0.0402
448.15	0.0405
448.464	0.0404
448.777	0.0407
449.091	0.0406
449.404	0.0413
449.718	0.0407
450.031	0.0406
450.345	0.0402
450.658	0.0407
450.971	0.0402
451.284	0.0398
451.597	0.0404
451.91	0.0409
452.223	0.0393
452.535	0.0397
452.848	0.0398
453.161	0.0401
453.473	0.04
453.786	0.0403
454.098	0.0392
454.411	0.0395
454.723	0.0389
455.035	0.039
455.347	0.0397
455.659	0.0399
455.971	0.0384
456.283	0.0393
456.595	0.0389
456.907	0.0393
457.218	0.0387
457.53	0.0381
457.841	0.0377
458.153	0.0376
458.464	0.0378
458.776	0.0363
459.087	0.0369
459.398	0.0374
459.709	0.0374
460.02	0.0365
460.331	0.037
460.642	0.0356
460.953	0.0364
461.263	0.0367
461.574	0.0366
461.885	0.0358
462.195	0.0361
462.506	0.0357
462.816	0.0358
463.126	0.0354
463.437	0.0352
463.747	0.0337
464.057	0.0351
464.367	0.0349
464.677	0.0343
464.987	0.0347
465.296	0.0341
465.606	0.0337
465.916	0.0333
466.225	0.0332
466.535	0.0339
466.844	0.033
467.154	0.0325
467.463	0.0328
467.772	0.0323
468.081	0.032
468.39	0.0323
468.699	0.0321
469.008	0.0326
469.317	0.0317
469.626	0.0315
469.935	0.0319
470.243	0.0318
470.552	0.0317
470.86	0.0315
471.169	0.0303
471.477	0.0311
471.785	0.0307
472.093	0.0306
472.402	0.0294
472.71	0.0296
473.018	0.0293
473.326	0.0285
473.633	0.029
473.941	0.0297
474.249	0.0289
474.556	0.029
474.864	0.0278
475.171	0.0278
475.479	0.0282
475.786	0.029
476.094	0.028
476.401	0.0281
476.708	0.0275
477.015	0.0275
477.322	0.027
477.629	0.0275
477.936	0.0264
478.242	0.026
478.549	0.0262
478.856	0.0264
479.162	0.0259
479.469	0.0252
479.775	0.0263
480.081	0.0246
480.388	0.0252
480.694	0.0247
481	0.0242
481.306	0.025
481.612	0.0248
481.918	0.0245
482.224	0.0249
482.53	0.0239
482.835	0.0237
483.141	0.0225
483.446	0.0223
483.752	0.0228
484.057	0.0223
484.363	0.0223
484.668	0.0225
484.973	0.0217
485.278	0.0208
485.583	0.0216
485.888	0.0206
486.193	0.0206
486.498	0.0209
486.803	0.0215
487.107	0.0203
487.412	0.0195
487.717	0.0198
488.021	0.0201
488.325	0.0198
488.63	0.0184
488.934	0.0193
489.238	0.0197
489.542	0.0196
489.846	0.018
490.15	0.0193
490.454	0.0187
490.758	0.0189
491.062	0.0186
491.366	0.0187
491.669	0.0188
491.973	0.0175
492.276	0.0183
492.58	0.0165
492.883	0.0173
493.186	0.0177
493.489	0.0174
493.792	0.0172
494.096	0.0163
494.399	0.0166
494.701	0.0168
495.004	0.017
495.307	0.0155
495.61	0.0159
495.912	0.0151
496.215	0.0152
496.517	0.0156
496.82	0.0149
497.122	0.0157
497.424	0.0143
497.727	0.0144
498.029	0.0146
498.331	0.015
498.633	0.0149
498.935	0.0138
499.237	0.0139
499.538	0.0134
499.84	0.0124
500.142	0.0142
500.443	0.0132
500.745	0.0136
501.046	0.0136
501.348	0.0129
501.649	0.0133
501.95	0.0126
502.251	0.0129
502.552	0.0126
502.853	0.0121
503.154	0.0116
503.455	0.0118
503.756	0.0119
504.057	0.0115
504.357	0.0114
504.658	0.0114
504.958	0.0114
505.259	0.0115
505.559	0.0118
505.859	0.0105
506.16	0.011
506.46	0.0111
506.76	0.0117
507.06	0.0099
507.36	0.0105
507.66	0.0101
507.96	0.0109
508.259	0.0103
508.559	0.0092
508.859	0.0104
509.158	0.0099
509.457	0.0093
509.757	0.0105
510.056	0.0095
510.355	0.0092
510.655	0.0076
510.954	0.0084
511.253	0.0093
511.552	0.009
511.851	0.0085
512.149	0.008
512.448	0.0081
512.747	0.0086
513.045	0.0069
513.344	0.0085
513.642	0.0085
513.941	0.0073
514.239	0.0087
514.537	0.0073
514.836	0.0079
515.134	0.0066
515.432	0.0076
515.73	0.0078
516.028	0.0073
516.326	0.0075
516.623	0.0064
516.921	0.0079
517.219	0.0079
517.516	0.008
517.814	0.007
518.111	0.0084
518.409	0.0079
518.706	0.0082
519.003	0.0071
519.3	0.0067
519.597	0.0064
519.894	0.0072
520.191	0.0065
520.488	0.007
520.785	0.0056
521.082	0.0063
521.378	0.0056
521.675	0.0044
521.971	0.0059
522.268	0.0045
522.564	0.0058
522.861	0.0062
523.157	0.0049
523.453	0.0059
523.749	0.0057
524.045	0.0063
524.341	0.0057
524.637	0.0054
524.933	0.0051
525.229	0.0054
525.524	0.0051
525.82	0.0052
526.115	0.0046
526.411	0.0047
526.706	0.0062
527.002	0.0045
527.297	0.0038
527.592	0.0057
527.887	0.0052
528.182	0.0052
528.477	0.0061
528.772	0.0047
529.067	0.0053
529.362	0.0052
529.657	0.005
529.951	0.004
530.246	0.0044
530.54	0.0029
530.835	0.0039
531.129	0.0035
531.423	0.0051
531.718	0.0039
532.012	0.0043
532.306	0.0046
532.6	0.0033
532.894	0.0041
533.188	0.0043
533.482	0.0025
533.775	0.0047
534.069	0.0035
534.363	0.0028
534.656	0.0026
534.95	0.0023
535.243	0.0039
535.536	0.0036
535.83	0.0041
536.123	0.0024
536.416	0.0035
536.709	0.0031
537.002	0.0042
537.295	0.0032
537.588	0.004
537.881	0.003
538.173	0.003
538.466	0.0028
538.759	0.0031
539.051	0.002
539.344	0.003
539.636	0.0025
539.928	0.0025
540.22	0.0033
540.513	0.0029
540.805	0.0035
541.097	0.0031
541.389	0.0025
541.681	0.0033
541.972	0.0028
542.264	0.0027
542.556	0.0035
542.847	0.0036
543.139	0.0042
543.431	0.0038
543.722	0.0038
544.013	0.005
544.305	0.0055
544.596	0.0046
544.887	0.004
545.178	0.0039
545.469	0.0036
545.76	0.0024
546.051	0.0045
546.342	0.0042
546.632	0.003
546.923	0.0036
547.214	0.0039
547.504	0.0031
547.795	0.0035
548.085	0.004
548.375	0.0024
548.666	0.0046
548.956	0.0023
549.246	0.0028
549.536	0.0024
549.826	0.003
550.116	0.0032
550.406	0.0031
550.695	0.0044
550.985	0.0032
551.275	0.0029
551.564	0.0035
551.854	0.0034
552.143	0.0034
552.433	0.0035
552.722	0.0026
553.011	0.0031
553.3	0.0039
553.589	0.003
553.879	0.0019
554.167	0.0028
554.456	0.0032
554.745	0.0021
555.034	0.0027
555.323	0.0019
555.611	0.0023
555.9	0.0029
556.188	0.003
556.477	0.0028
556.765	0.0017
557.053	0.002
557.342	0.0021
557.63	0.0025
557.918	0.0018
558.206	0.0023
558.494	0.0034
558.782	0.0025
559.069	0.0033
559.357	0.0025
559.645	0.0018
559.932	0.0022
560.22	0.0035
560.507	0.0029
560.795	0.0025
561.082	0.0025
561.37	0.0027
561.657	0.0026
561.944	0.0026
562.231	0.0033
562.518	0.0025
562.805	0.0033
563.092	0.0044
563.379	0.0027
563.665	0.0029
563.952	0.0045
564.239	0.0036
564.525	0.0033
564.811	0.0042
565.098	0.0038
565.384	0.0037
565.67	0.0028
565.957	0.0031
566.243	0.0033
566.529	0.0036
566.815	0.0045
567.101	0.0034
567.387	0.0023
567.672	0.0026
567.958	0.0029
568.244	0.0029
568.529	0.0026
568.815	0.003
569.1	0.0034
569.386	0.0032
569.671	0.0029
569.956	0.0021
570.242	0.0026
570.527	0.0035
570.812	0.003
571.097	0.0025
571.382	0.0028
571.666	0.003
571.951	0.0028
572.236	0.0037
572.521	0.0026
572.805	0.0035
573.09	0.0029
573.374	0.003
573.659	0.0024
573.943	0.0029
574.227	0.0026
574.511	0.003
574.795	0.0032
575.079	0.0022
575.363	0.0034
575.647	0.003
575.931	0.0034
576.215	0.0028
576.499	0.0027
576.782	0.0029
577.066	0.0025
577.349	0.0031
577.633	0.0047
577.916	0.0043
578.2	0.0039
578.483	0.0034
578.766	0.0035
579.049	0.0036
579.332	0.0029
579.615	0.0033
579.898	0.0034
580.181	0.0036
580.464	0.0031
580.746	0.0024
581.029	0.0037
581.312	0.0027
581.594	0.0027
581.877	0.0034
582.159	0.0039
582.441	0.0035
582.724	0.0028
583.006	0.0026
583.288	0.002
583.57	0.0019
583.852	0.0024
584.134	0.0028
584.416	0.0033
584.697	0.0029
584.979	0.0031
585.261	0.0029
585.542	0.0029
585.824	0.0033
586.105	0.0034
586.387	0.0028
586.668	0.0029
586.949	0.0032
587.231	0.0026
587.512	0.0026
587.793	0.0031
588.074	0.0032
588.355	0.0032
588.636	0.0042
588.916	0.0032
589.197	0.0037
589.478	0.0034
589.758	0.0021
590.039	0.003
590.319	0.0034
590.6	0.0028
590.88	0.0027
591.16	0.0032
591.441	0.0032
591.721	0.0032
592.001	0.0027
592.281	0.0029
592.561	0.0038
592.841	0.003
593.12	0.0032
593.4	0.0026
593.68	0.0028
593.959	0.0027
594.239	0.0039
594.518	0.0022
594.798	0.0035
595.077	0.0032
595.356	0.0021
595.636	0.0025
595.915	0.0028
596.194	0.0025
