Data from 03 0.2 mM BQDS 0.4 mM K2Cr2O7 1 M H2SO4 5 min_Absorbance_21-32-44-573.txt Node
Date: Tue Dec 07 21:32:44 EST 2021
User: kwabilab-user
Spectrometer: HDX00518
Trigger mode: 0
Integration Time (sec): 5.000000E-2
Scans to average: 50
Nonlinearity correction enabled: false
Boxcar width: 0
Storing dark spectrum: false
XAxis mode: Wavelengths
Number of Pixels in Spectrum: 2068
>>>>>Begin Spectral Data<<<<<
195.27	0.211
195.642	0.208
196.014	0.1327
196.386	0.0973
196.758	0.0673
197.129	0.0657
197.501	0.0752
197.872	0.123
198.244	0.1414
198.615	0.1336
198.986	0.1346
199.357	0.132
199.728	0.1445
200.099	0.1207
200.47	0.1374
200.841	0.1322
201.212	0.1392
201.582	0.1397
201.953	0.139
202.323	0.1408
202.694	0.1404
203.064	0.1481
203.434	0.1104
203.804	0.1569
204.174	0.1263
204.544	0.1398
204.914	0.1586
205.284	0.1458
205.653	0.1465
206.023	0.1537
206.393	0.1403
206.762	0.1523
207.131	0.1487
207.501	0.1467
207.87	0.172
208.239	0.1647
208.608	0.1611
208.977	0.1531
209.346	0.1649
209.715	0.1659
210.083	0.158
210.452	0.1657
210.82	0.1742
211.189	0.1736
211.557	0.1559
211.925	0.1779
212.294	0.1978
212.662	0.1974
213.03	0.1907
213.398	0.1928
213.766	0.2078
214.133	0.2265
214.501	0.2492
214.869	0.236
215.236	0.2741
215.604	0.2691
215.971	0.2775
216.338	0.2885
216.705	0.3199
217.072	0.3298
217.439	0.3608
217.806	0.3911
218.173	0.3995
218.54	0.4459
218.907	0.4613
219.273	0.5226
219.64	0.5428
220.006	0.5869
220.373	0.6043
220.739	0.6435
221.105	0.6915
221.471	0.7167
221.837	0.7635
222.203	0.7949
222.569	0.8337
222.935	0.8602
223.3	0.8898
223.666	0.9242
224.031	0.953
224.397	0.9585
224.762	0.9794
225.127	1.0026
225.493	1.0241
225.858	1.0217
226.223	1.0443
226.588	1.0383
226.952	1.0457
227.317	1.0627
227.682	1.0512
228.046	1.0439
228.411	1.0544
228.775	1.0537
229.14	1.0427
229.504	1.0353
229.868	1.0391
230.232	1.0289
230.596	1.0153
230.96	1.0163
231.324	1.0016
231.688	0.9949
232.052	0.9914
232.415	0.9778
232.779	0.9692
233.142	0.9611
233.505	0.9511
233.869	0.9455
234.232	0.935
234.595	0.9225
234.958	0.9116
235.321	0.9055
235.684	0.8953
236.047	0.8836
236.409	0.8762
236.772	0.8711
237.134	0.8631
237.497	0.8499
237.859	0.843
238.222	0.8345
238.584	0.8278
238.946	0.8171
239.308	0.8102
239.67	0.8053
240.032	0.7988
240.393	0.794
240.755	0.78
241.117	0.7803
241.478	0.771
241.84	0.7665
242.201	0.7595
242.562	0.7539
242.924	0.7474
243.285	0.7442
243.646	0.7361
244.007	0.7334
244.368	0.7282
244.728	0.7246
245.089	0.7207
245.45	0.7174
245.81	0.7139
246.171	0.711
246.531	0.7073
246.891	0.7016
247.252	0.7006
247.612	0.6993
247.972	0.6952
248.332	0.6955
248.692	0.6903
249.051	0.688
249.411	0.6872
249.771	0.6862
250.13	0.6824
250.49	0.6814
250.849	0.6802
251.208	0.6776
251.568	0.6766
251.927	0.6749
252.286	0.6746
252.645	0.677
253.004	0.6715
253.363	0.67
253.721	0.6718
254.08	0.6711
254.439	0.6682
254.797	0.6668
255.155	0.6656
255.514	0.6684
255.872	0.6674
256.23	0.6651
256.588	0.6638
256.946	0.6629
257.304	0.6643
257.662	0.663
258.02	0.6614
258.377	0.6583
258.735	0.6594
259.093	0.6588
259.45	0.6575
259.807	0.655
260.165	0.6559
260.522	0.6549
260.879	0.6514
261.236	0.6533
261.593	0.6499
261.95	0.6486
262.306	0.6474
262.663	0.6477
263.02	0.6471
263.376	0.6442
263.733	0.643
264.089	0.6435
264.445	0.6387
264.802	0.639
265.158	0.6363
265.514	0.6331
265.87	0.6339
266.226	0.6312
266.581	0.6279
266.937	0.6257
267.293	0.6249
267.648	0.6214
268.004	0.6197
268.359	0.6171
268.714	0.6147
269.07	0.6118
269.425	0.609
269.78	0.609
270.135	0.6041
270.49	0.6015
270.844	0.599
271.199	0.5955
271.554	0.594
271.908	0.5882
272.263	0.5855
272.617	0.5823
272.972	0.579
273.326	0.5752
273.68	0.5733
274.034	0.5699
274.388	0.5656
274.742	0.5615
275.096	0.5581
275.45	0.5543
275.803	0.5508
276.157	0.5449
276.51	0.5437
276.864	0.538
277.217	0.5324
277.571	0.5299
277.924	0.5237
278.277	0.5217
278.63	0.5162
278.983	0.5116
279.336	0.5069
279.688	0.5028
280.041	0.4994
280.394	0.4926
280.746	0.4907
281.099	0.4842
281.451	0.4792
281.803	0.4746
282.156	0.4715
282.508	0.4679
282.86	0.4613
283.212	0.4564
283.564	0.453
283.916	0.4471
284.267	0.4434
284.619	0.4395
284.971	0.4346
285.322	0.4308
285.673	0.4249
286.025	0.422
286.376	0.4171
286.727	0.4117
287.078	0.407
287.429	0.4036
287.78	0.398
288.131	0.3936
288.482	0.3889
288.833	0.3851
289.183	0.3794
289.534	0.3759
289.884	0.3708
290.235	0.367
290.585	0.3624
290.935	0.3581
291.285	0.3539
291.635	0.3492
291.985	0.3454
292.335	0.341
292.685	0.3364
293.035	0.3322
293.384	0.3283
293.734	0.323
294.083	0.319
294.433	0.3145
294.782	0.3111
295.131	0.3071
295.48	0.3027
295.829	0.2997
296.179	0.2936
296.527	0.2911
296.876	0.2874
297.225	0.2841
297.574	0.2794
297.922	0.276
298.271	0.2727
298.619	0.2685
298.968	0.2657
299.316	0.2623
299.664	0.259
300.012	0.2553
300.36	0.2512
300.708	0.2486
301.056	0.246
301.404	0.2427
301.752	0.2399
302.099	0.2369
302.447	0.2343
302.794	0.2317
303.142	0.2293
303.489	0.2263
303.836	0.2242
304.183	0.2217
304.531	0.2194
304.878	0.217
305.224	0.2148
305.571	0.2141
305.918	0.2111
306.265	0.2085
306.611	0.2075
306.958	0.2051
307.304	0.204
307.651	0.2027
307.997	0.2014
308.343	0.2001
308.689	0.1988
309.035	0.1971
309.381	0.1962
309.727	0.1945
310.073	0.1946
310.419	0.1935
310.764	0.1921
311.11	0.192
311.455	0.1912
311.801	0.1899
312.146	0.1892
312.491	0.1892
312.837	0.1885
313.182	0.1889
313.527	0.1878
313.872	0.1879
314.216	0.1872
314.561	0.1872
314.906	0.1873
315.251	0.1866
315.595	0.1867
315.94	0.187
316.284	0.1873
316.628	0.187
316.972	0.1873
317.317	0.1879
317.661	0.1882
318.005	0.1889
318.348	0.1886
318.692	0.1895
319.036	0.1893
319.38	0.19
319.723	0.1909
320.067	0.1914
320.41	0.192
320.754	0.1928
321.097	0.1939
321.44	0.1949
321.783	0.1952
322.126	0.1957
322.469	0.1976
322.812	0.1984
323.155	0.1994
323.498	0.2004
323.84	0.202
324.183	0.2023
324.525	0.204
324.868	0.2045
325.21	0.2061
325.552	0.2078
325.894	0.2088
326.236	0.2098
326.578	0.2117
326.92	0.2126
327.262	0.2134
327.604	0.215
327.946	0.2167
328.287	0.2178
328.629	0.2186
328.97	0.2203
329.312	0.2222
329.653	0.2238
329.994	0.225
330.335	0.2269
330.676	0.2277
331.017	0.2291
331.358	0.2311
331.699	0.2324
332.04	0.2342
332.38	0.2353
332.721	0.2373
333.061	0.2379
333.402	0.2394
333.742	0.2414
334.083	0.2434
334.423	0.2439
334.763	0.2449
335.103	0.2466
335.443	0.2477
335.783	0.2485
336.123	0.2494
336.462	0.2509
336.802	0.2525
337.141	0.2538
337.481	0.2551
337.82	0.2562
338.16	0.2563
338.499	0.2582
338.838	0.2594
339.177	0.2606
339.516	0.262
339.855	0.2629
340.194	0.2646
340.533	0.2648
340.872	0.2661
341.21	0.2675
341.549	0.2686
341.887	0.2688
342.226	0.2699
342.564	0.2696
342.902	0.2707
343.24	0.2708
343.578	0.2711
343.916	0.2716
344.254	0.2721
344.592	0.2722
344.93	0.2727
345.268	0.2723
345.605	0.2729
345.943	0.2728
346.28	0.2736
346.618	0.273
346.955	0.2731
347.292	0.2735
347.629	0.2744
347.966	0.2746
348.303	0.2743
348.64	0.275
348.977	0.2743
349.314	0.2738
349.65	0.2746
349.987	0.2742
350.324	0.274
350.66	0.2739
350.996	0.274
351.333	0.2725
351.669	0.2718
352.005	0.271
352.341	0.27
352.677	0.2694
353.013	0.2683
353.349	0.2681
353.685	0.2663
354.02	0.2648
354.356	0.2646
354.691	0.263
355.027	0.2629
355.362	0.2611
355.697	0.2593
356.033	0.2583
356.368	0.2578
356.703	0.2572
357.038	0.2559
357.373	0.2549
357.707	0.2544
358.042	0.2534
358.377	0.2516
358.711	0.2504
359.046	0.2503
359.38	0.2476
359.715	0.2468
360.049	0.2459
360.383	0.2445
360.717	0.2431
361.051	0.2417
361.385	0.2403
361.719	0.2378
362.053	0.237
362.387	0.2345
362.72	0.2317
363.054	0.2301
363.387	0.2286
363.721	0.2269
364.054	0.2245
364.387	0.2227
364.721	0.2211
365.054	0.2187
365.387	0.2172
365.72	0.2154
366.053	0.2137
366.385	0.2115
366.718	0.2111
367.051	0.2083
367.383	0.207
367.716	0.2058
368.048	0.2049
368.381	0.2018
368.713	0.2013
369.045	0.2003
369.377	0.1979
369.709	0.1967
370.041	0.1948
370.373	0.1944
370.705	0.1919
371.037	0.1897
371.368	0.188
371.7	0.1866
372.031	0.1853
372.363	0.183
372.694	0.1804
373.025	0.1787
373.356	0.1763
373.688	0.174
374.019	0.1716
374.35	0.1696
374.68	0.1679
375.011	0.165
375.342	0.1634
375.673	0.1605
376.003	0.1589
376.334	0.1568
376.664	0.1551
376.995	0.1533
377.325	0.1519
377.655	0.1506
377.985	0.1487
378.315	0.1467
378.645	0.1462
378.975	0.1441
379.305	0.1419
379.635	0.1413
379.964	0.1399
380.294	0.138
380.623	0.1367
380.953	0.1362
381.282	0.1341
381.611	0.1325
381.941	0.1309
382.27	0.1298
382.599	0.1275
382.928	0.1262
383.257	0.1245
383.585	0.1231
383.914	0.1218
384.243	0.1196
384.571	0.1176
384.9	0.1153
385.228	0.1138
385.557	0.1123
385.885	0.1114
386.213	0.1088
386.541	0.1077
386.869	0.1052
387.197	0.1029
387.525	0.1013
387.853	0.0998
388.181	0.0988
388.508	0.0978
388.836	0.0964
389.164	0.0942
389.491	0.0933
389.818	0.0919
390.146	0.0907
390.473	0.089
390.8	0.0882
391.127	0.0871
391.454	0.0855
391.781	0.0847
392.108	0.0835
392.435	0.0818
392.761	0.0805
393.088	0.0803
393.415	0.0797
393.741	0.0785
394.067	0.0776
394.394	0.0771
394.72	0.0753
395.046	0.0748
395.372	0.0731
395.698	0.0717
396.024	0.0721
396.35	0.0703
396.676	0.0698
397.001	0.069
397.327	0.0672
397.653	0.0661
397.978	0.0654
398.303	0.0644
398.629	0.0636
398.954	0.0627
399.279	0.0631
399.604	0.0621
399.929	0.061
400.254	0.0605
400.579	0.0596
400.904	0.0585
401.229	0.0575
401.553	0.0566
401.878	0.0561
402.202	0.0557
402.527	0.0555
402.851	0.0547
403.175	0.0545
403.5	0.0538
403.824	0.0535
404.148	0.0534
404.472	0.0526
404.796	0.0517
405.119	0.0517
405.443	0.0514
405.767	0.0507
406.09	0.05
406.414	0.0508
406.737	0.0493
407.061	0.0499
407.384	0.0498
407.707	0.0487
408.03	0.0491
408.353	0.0494
408.676	0.0486
408.999	0.0483
409.322	0.0488
409.645	0.0485
409.968	0.0479
410.29	0.048
410.613	0.0475
410.935	0.0474
411.258	0.0478
411.58	0.0471
411.902	0.0472
412.224	0.0471
412.546	0.0468
412.868	0.0465
413.19	0.0462
413.512	0.0467
413.834	0.0471
414.156	0.0468
414.477	0.0464
414.799	0.0466
415.121	0.0468
415.442	0.0464
415.763	0.0469
416.085	0.0468
416.406	0.047
416.727	0.0465
417.048	0.0466
417.369	0.0459
417.69	0.0461
418.011	0.0459
418.331	0.0466
418.652	0.0469
418.973	0.0469
419.293	0.0468
419.614	0.0465
419.934	0.047
420.254	0.0463
420.574	0.046
420.895	0.0469
421.215	0.0456
421.535	0.046
421.855	0.0464
422.174	0.0464
422.494	0.0465
422.814	0.0469
423.134	0.047
423.453	0.0466
423.773	0.0463
424.092	0.0461
424.411	0.0464
424.731	0.0465
425.05	0.0462
425.369	0.0466
425.688	0.0465
426.007	0.0473
426.326	0.0473
426.644	0.0474
426.963	0.047
427.282	0.0474
427.6	0.047
427.919	0.0476
428.237	0.0477
428.556	0.0476
428.874	0.0472
429.192	0.0471
429.51	0.0467
429.828	0.0477
430.146	0.0476
430.464	0.0478
430.782	0.047
431.1	0.0481
431.418	0.0471
431.735	0.047
432.053	0.0479
432.37	0.0478
432.688	0.0475
433.005	0.0481
433.322	0.0476
433.639	0.0473
433.957	0.0481
434.274	0.0482
434.591	0.048
434.907	0.0482
435.224	0.048
435.541	0.0484
435.858	0.0489
436.174	0.0482
436.491	0.0482
436.807	0.0484
437.124	0.0476
437.44	0.0475
437.756	0.0468
438.072	0.0467
438.388	0.0479
438.704	0.0474
439.02	0.0481
439.336	0.0476
439.652	0.0478
439.968	0.0476
440.283	0.0474
440.599	0.0481
440.914	0.0476
441.23	0.0467
441.545	0.0473
441.86	0.047
442.175	0.0479
442.491	0.0471
442.806	0.0473
443.121	0.048
443.435	0.0465
443.75	0.0474
444.065	0.0468
444.38	0.0472
444.694	0.0469
445.009	0.0469
445.323	0.0474
445.638	0.0466
445.952	0.0469
446.266	0.0467
446.58	0.0473
446.894	0.0471
447.208	0.0472
447.522	0.047
447.836	0.0459
448.15	0.0461
448.464	0.0453
448.777	0.0464
449.091	0.0449
449.404	0.0464
449.718	0.0464
450.031	0.0456
450.345	0.0452
450.658	0.0456
450.971	0.0455
451.284	0.0452
451.597	0.0452
451.91	0.0453
452.223	0.0451
452.535	0.045
452.848	0.045
453.161	0.0447
453.473	0.0449
453.786	0.045
454.098	0.0445
454.411	0.0448
454.723	0.0437
455.035	0.0445
455.347	0.0441
455.659	0.0442
455.971	0.0442
456.283	0.044
456.595	0.0436
456.907	0.0434
457.218	0.0437
457.53	0.0433
457.841	0.0425
458.153	0.0427
458.464	0.0424
458.776	0.0415
459.087	0.042
459.398	0.0417
459.709	0.0413
460.02	0.0412
460.331	0.041
460.642	0.0409
460.953	0.0411
461.263	0.0414
461.574	0.0408
461.885	0.0399
462.195	0.0407
462.506	0.0399
462.816	0.04
463.126	0.0394
463.437	0.0397
463.747	0.0389
464.057	0.0389
464.367	0.0389
464.677	0.0386
464.987	0.039
465.296	0.0384
465.606	0.0377
465.916	0.0373
466.225	0.0377
466.535	0.0369
466.844	0.0372
467.154	0.0368
467.463	0.0362
467.772	0.0366
468.081	0.0374
468.39	0.037
468.699	0.0353
469.008	0.0363
469.317	0.036
469.626	0.0357
469.935	0.0351
470.243	0.0356
470.552	0.0361
470.86	0.0353
471.169	0.0346
471.477	0.0344
471.785	0.0345
472.093	0.0345
472.402	0.0343
472.71	0.0334
473.018	0.033
473.326	0.0323
473.633	0.0335
473.941	0.0327
474.249	0.0323
474.556	0.0329
474.864	0.0315
475.171	0.031
475.479	0.0313
475.786	0.032
476.094	0.0317
476.401	0.0316
476.708	0.0314
477.015	0.032
477.322	0.0308
477.629	0.0302
477.936	0.0299
478.242	0.0297
478.549	0.0291
478.856	0.029
479.162	0.0292
479.469	0.0293
479.775	0.0298
480.081	0.0284
480.388	0.0285
480.694	0.0279
481	0.0283
481.306	0.0283
481.612	0.0278
481.918	0.0267
482.224	0.0275
482.53	0.0271
482.835	0.0266
483.141	0.0253
483.446	0.0259
483.752	0.0255
484.057	0.0243
484.363	0.0244
484.668	0.0244
484.973	0.025
485.278	0.0242
485.583	0.0242
485.888	0.0227
486.193	0.0232
486.498	0.0237
486.803	0.0242
487.107	0.0239
487.412	0.0228
487.717	0.0222
488.021	0.0228
488.325	0.0215
488.63	0.0214
488.934	0.0221
489.238	0.023
489.542	0.0216
489.846	0.0201
490.15	0.0219
490.454	0.021
490.758	0.0213
491.062	0.0211
491.366	0.0202
491.669	0.0209
491.973	0.0194
492.276	0.0196
492.58	0.0177
492.883	0.0195
493.186	0.02
493.489	0.019
493.792	0.0193
494.096	0.0186
494.399	0.0191
494.701	0.0192
495.004	0.0186
495.307	0.0185
495.61	0.0175
495.912	0.0175
496.215	0.0166
496.517	0.0168
496.82	0.017
497.122	0.0167
497.424	0.0162
497.727	0.0158
498.029	0.017
498.331	0.0167
498.633	0.0167
498.935	0.0165
499.237	0.0162
499.538	0.0152
499.84	0.0156
500.142	0.0156
500.443	0.0154
500.745	0.0149
501.046	0.0145
501.348	0.0146
501.649	0.0139
501.95	0.0138
502.251	0.0129
502.552	0.0134
502.853	0.013
503.154	0.0133
503.455	0.0126
503.756	0.0135
504.057	0.0143
504.357	0.0127
504.658	0.0129
504.958	0.0127
505.259	0.0137
505.559	0.013
505.859	0.0123
506.16	0.0129
506.46	0.0127
506.76	0.0126
507.06	0.0121
507.36	0.0115
507.66	0.0125
507.96	0.0125
508.259	0.0108
508.559	0.0099
508.859	0.0102
509.158	0.012
509.457	0.0101
509.757	0.0116
510.056	0.0109
510.355	0.0101
510.655	0.0089
510.954	0.01
511.253	0.0104
511.552	0.0098
511.851	0.0097
512.149	0.009
512.448	0.0095
512.747	0.0099
513.045	0.0089
513.344	0.0094
513.642	0.0097
513.941	0.0098
514.239	0.0093
514.537	0.0085
514.836	0.0095
515.134	0.0084
515.432	0.0081
515.73	0.0093
516.028	0.0075
516.326	0.0083
516.623	0.0081
516.921	0.0076
517.219	0.0098
517.516	0.0081
517.814	0.0081
518.111	0.0081
518.409	0.0088
518.706	0.008
519.003	0.0076
519.3	0.0066
519.597	0.0073
519.894	0.0069
520.191	0.0079
520.488	0.0068
520.785	0.0066
521.082	0.0069
521.378	0.0067
521.675	0.0055
521.971	0.0054
522.268	0.0065
522.564	0.0063
522.861	0.0064
523.157	0.0052
523.453	0.0065
523.749	0.0062
524.045	0.0069
524.341	0.0063
524.637	0.006
524.933	0.0056
525.229	0.006
525.524	0.0056
525.82	0.0065
526.115	0.0055
526.411	0.0055
526.706	0.0059
527.002	0.0059
527.297	0.004
527.592	0.0066
527.887	0.0062
528.182	0.0059
528.477	0.0068
528.772	0.0059
529.067	0.0053
529.362	0.0055
529.657	0.0056
529.951	0.0051
530.246	0.0037
530.54	0.0032
530.835	0.0038
531.129	0.0041
531.423	0.0048
531.718	0.0036
532.012	0.0045
532.306	0.0036
532.6	0.0045
532.894	0.0035
533.188	0.0046
533.482	0.0042
533.775	0.0046
534.069	0.0042
534.363	0.0035
534.656	0.004
534.95	0.0024
535.243	0.0035
535.536	0.0032
535.83	0.0045
536.123	0.003
536.416	0.0038
536.709	0.0031
537.002	0.0047
537.295	0.0042
537.588	0.0051
537.881	0.0031
538.173	0.003
538.466	0.0034
538.759	0.0027
539.051	0.003
539.344	0.0027
539.636	0.0033
539.928	0.0031
540.22	0.0032
540.513	0.0028
540.805	0.0035
541.097	0.0036
541.389	0.0038
541.681	0.0032
541.972	0.0039
542.264	0.0026
542.556	0.0031
542.847	0.0038
543.139	0.0038
543.431	0.0042
543.722	0.0039
544.013	0.0045
544.305	0.0047
544.596	0.0047
544.887	0.0035
545.178	0.004
545.469	0.0029
545.76	0.0036
546.051	0.0039
546.342	0.0037
546.632	0.0025
546.923	0.0038
547.214	0.0034
547.504	0.0031
547.795	0.0032
548.085	0.0028
548.375	0.0029
548.666	0.0029
548.956	0.0029
549.246	0.0034
549.536	0.0023
549.826	0.0041
550.116	0.0035
550.406	0.0041
550.695	0.0041
550.985	0.0045
551.275	0.0037
551.564	0.0033
551.854	0.0038
552.143	0.0032
552.433	0.0033
552.722	0.0046
553.011	0.0031
553.3	0.0041
553.589	0.0025
553.879	0.0027
554.167	0.0036
554.456	0.0031
554.745	0.0021
555.034	0.0015
555.323	0.0016
555.611	0.0028
555.9	0.0029
556.188	0.0033
556.477	0.0027
556.765	0.0029
557.053	0.0026
557.342	0.0018
557.63	0.004
557.918	0.0028
558.206	0.0026
558.494	0.0033
558.782	0.0025
559.069	0.0023
559.357	0.0027
559.645	0.0017
559.932	0.0026
560.22	0.0028
560.507	0.0035
560.795	0.0023
561.082	0.0023
561.37	0.0024
561.657	0.0037
561.944	0.0029
562.231	0.0024
562.518	0.0023
562.805	0.003
563.092	0.0039
563.379	0.0035
563.665	0.0028
563.952	0.004
564.239	0.0035
564.525	0.0039
564.811	0.0042
565.098	0.0038
565.384	0.0042
565.67	0.0037
565.957	0.0028
566.243	0.0029
566.529	0.0036
566.815	0.0047
567.101	0.0019
567.387	0.0019
567.672	0.0025
567.958	0.0022
568.244	0.0035
568.529	0.004
568.815	0.0015
569.1	0.0034
569.386	0.003
569.671	0.0029
569.956	0.0037
570.242	0.0024
570.527	0.0041
570.812	0.003
571.097	0.0035
571.382	0.0034
571.666	0.0032
571.951	0.0029
572.236	0.0033
572.521	0.003
572.805	0.0036
573.09	0.0031
573.374	0.0026
573.659	0.0029
573.943	0.0031
574.227	0.0034
574.511	0.0038
574.795	0.0029
575.079	0.0023
575.363	0.003
575.647	0.0036
575.931	0.0028
576.215	0.0034
576.499	0.0021
576.782	0.0032
577.066	0.0029
577.349	0.0026
577.633	0.0033
577.916	0.0035
578.2	0.004
578.483	0.0039
578.766	0.0033
579.049	0.004
579.332	0.0026
579.615	0.0029
579.898	0.0034
580.181	0.0038
580.464	0.0026
580.746	0.0022
581.029	0.0025
581.312	0.0019
581.594	0.0026
581.877	0.0037
582.159	0.0036
582.441	0.0028
582.724	0.003
583.006	0.0027
583.288	0.0023
583.57	0.0026
583.852	0.0013
584.134	0.0014
584.416	0.0034
584.697	0.0026
584.979	0.0033
585.261	0.0032
585.542	0.0027
585.824	0.003
586.105	0.0037
586.387	0.0025
586.668	0.0024
586.949	0.0027
587.231	0.0015
587.512	0.0023
587.793	0.0027
588.074	0.0028
588.355	0.0032
588.636	0.0037
588.916	0.0029
589.197	0.0028
589.478	0.0026
589.758	0.0026
590.039	0.0029
590.319	0.0027
590.6	0.002
590.88	0.0018
591.16	0.0033
591.441	0.0031
591.721	0.0024
592.001	0.0031
592.281	0.0026
592.561	0.0023
592.841	0.0026
593.12	0.003
593.4	0.0024
593.68	0.0022
593.959	0.0029
594.239	0.0038
594.518	0.0021
594.798	0.002
595.077	0.0034
595.356	0.0023
595.636	0.0034
595.915	0.0028
596.194	0.003
596.473	0.0023
596.752	0.0029
