Data from 03 0.2 mM BQDS 0.4 mM K2Cr2O7 1 M H2SO4 5 min_Absorbance_09-57-42-371.txt Node
Date: Wed Dec 08 09:57:42 EST 2021
User: kwabilab-user
Spectrometer: HDX00518
Trigger mode: 0
Integration Time (sec): 5.000000E-2
Scans to average: 50
Nonlinearity correction enabled: false
Boxcar width: 0
Storing dark spectrum: false
XAxis mode: Wavelengths
Number of Pixels in Spectrum: 2068
>>>>>Begin Spectral Data<<<<<
195.27	0.0643
195.642	0.088
196.014	0.043
196.386	0.0629
196.758	0.0642
197.129	0.0373
197.501	0.0578
197.872	0.1029
198.244	0.1164
198.615	0.1272
198.986	0.101
199.357	0.1161
199.728	0.1313
200.099	0.1203
200.47	0.1256
200.841	0.1239
201.212	0.1207
201.582	0.1136
201.953	0.1225
202.323	0.1256
202.694	0.1351
203.064	0.1304
203.434	0.1217
203.804	0.1436
204.174	0.1284
204.544	0.1215
204.914	0.1244
205.284	0.1257
205.653	0.1407
206.023	0.1284
206.393	0.1334
206.762	0.1317
207.131	0.1498
207.501	0.1462
207.87	0.1558
208.239	0.1401
208.608	0.1373
208.977	0.146
209.346	0.1558
209.715	0.1603
210.083	0.1472
210.452	0.1556
210.82	0.1593
211.189	0.1645
211.557	0.1607
211.925	0.1699
212.294	0.1858
212.662	0.188
213.03	0.1777
213.398	0.1725
213.766	0.2077
214.133	0.2117
214.501	0.213
214.869	0.237
215.236	0.2525
215.604	0.2499
215.971	0.2525
216.338	0.2956
216.705	0.3024
217.072	0.311
217.439	0.3264
217.806	0.3702
218.173	0.399
218.54	0.417
218.907	0.4447
219.273	0.4975
219.64	0.5166
220.006	0.5708
220.373	0.5862
220.739	0.6415
221.105	0.6837
221.471	0.6832
221.837	0.7387
222.203	0.7936
222.569	0.8175
222.935	0.8328
223.3	0.8565
223.666	0.8854
224.031	0.9152
224.397	0.9341
224.762	0.9442
225.127	0.9708
225.493	0.977
225.858	0.9828
226.223	0.9987
226.588	1
226.952	1.008
227.317	1.0095
227.682	1.0053
228.046	1.0046
228.411	1.0035
228.775	1.0029
229.14	0.9973
229.504	0.9847
229.868	0.9877
230.232	0.9797
230.596	0.9757
230.96	0.9675
231.324	0.9566
231.688	0.9492
232.052	0.9465
232.415	0.9305
232.779	0.9249
233.142	0.9189
233.505	0.9066
233.869	0.8963
234.232	0.8888
234.595	0.8741
234.958	0.8691
235.321	0.8568
235.684	0.8477
236.047	0.8382
236.409	0.8287
236.772	0.8196
237.134	0.8093
237.497	0.8028
237.859	0.798
238.222	0.7842
238.584	0.7804
238.946	0.767
239.308	0.7611
239.67	0.7527
240.032	0.7454
240.393	0.7395
240.755	0.7314
241.117	0.7256
241.478	0.72
241.84	0.71
242.201	0.7048
242.562	0.6982
242.924	0.6935
243.285	0.6856
243.646	0.6799
244.007	0.677
244.368	0.6715
244.728	0.6646
245.089	0.6634
245.45	0.6569
245.81	0.6547
246.171	0.6471
246.531	0.6431
246.891	0.6385
247.252	0.6387
247.612	0.6346
247.972	0.6287
248.332	0.6274
248.692	0.6207
249.051	0.6204
249.411	0.6174
249.771	0.6152
250.13	0.6123
250.49	0.6099
250.849	0.608
251.208	0.6062
251.568	0.6012
251.927	0.6006
252.286	0.6002
252.645	0.5961
253.004	0.5946
253.363	0.5912
253.721	0.5898
254.08	0.5895
254.439	0.5879
254.797	0.5848
255.155	0.5824
255.514	0.5803
255.872	0.5813
256.23	0.578
256.588	0.5787
256.946	0.5745
257.304	0.575
257.662	0.5736
258.02	0.5717
258.377	0.5695
258.735	0.5673
259.093	0.5661
259.45	0.5661
259.807	0.5634
260.165	0.563
260.522	0.5614
260.879	0.5595
261.236	0.5572
261.593	0.5549
261.95	0.5526
262.306	0.5529
262.663	0.5505
263.02	0.5499
263.376	0.5468
263.733	0.5441
264.089	0.5445
264.445	0.5409
264.802	0.5368
265.158	0.5349
265.514	0.5342
265.87	0.5319
266.226	0.5304
266.581	0.5285
266.937	0.5271
267.293	0.5254
267.648	0.5223
268.004	0.5185
268.359	0.5177
268.714	0.5158
269.07	0.5099
269.425	0.5086
269.78	0.51
270.135	0.5057
270.49	0.503
270.844	0.5
271.199	0.4978
271.554	0.4938
271.908	0.4911
272.263	0.4896
272.617	0.4867
272.972	0.4828
273.326	0.4818
273.68	0.4781
274.034	0.4741
274.388	0.4721
274.742	0.4684
275.096	0.4638
275.45	0.4613
275.803	0.4582
276.157	0.454
276.51	0.4513
276.864	0.4481
277.217	0.4455
277.571	0.442
277.924	0.4375
278.277	0.4355
278.63	0.4308
278.983	0.4276
279.336	0.4243
279.688	0.4191
280.041	0.4168
280.394	0.4127
280.746	0.4087
281.099	0.4048
281.451	0.4017
281.803	0.3972
282.156	0.3944
282.508	0.39
282.86	0.3867
283.212	0.3819
283.564	0.3795
283.916	0.374
284.267	0.3708
284.619	0.3672
284.971	0.3634
285.322	0.3603
285.673	0.3561
286.025	0.3526
286.376	0.3486
286.727	0.3442
287.078	0.3405
287.429	0.3383
287.78	0.3337
288.131	0.3295
288.482	0.3254
288.833	0.3226
289.183	0.3177
289.534	0.314
289.884	0.3109
290.235	0.3064
290.585	0.3025
290.935	0.2982
291.285	0.2952
291.635	0.292
291.985	0.2877
292.335	0.2841
292.685	0.2809
293.035	0.2779
293.384	0.2733
293.734	0.2694
294.083	0.2656
294.433	0.2619
294.782	0.2586
295.131	0.2552
295.48	0.2522
295.829	0.2489
296.179	0.2443
296.527	0.2413
296.876	0.2391
297.225	0.2367
297.574	0.2314
297.922	0.229
298.271	0.2262
298.619	0.2232
298.968	0.2207
299.316	0.2166
299.664	0.2148
300.012	0.2117
300.36	0.208
300.708	0.2058
301.056	0.2035
301.404	0.2011
301.752	0.198
302.099	0.1958
302.447	0.1937
302.794	0.1915
303.142	0.1889
303.489	0.187
303.836	0.1846
304.183	0.1827
304.531	0.1814
304.878	0.1797
305.224	0.177
305.571	0.1762
305.918	0.1739
306.265	0.1724
306.611	0.1713
306.958	0.1697
307.304	0.1685
307.651	0.1671
307.997	0.1659
308.343	0.1644
308.689	0.1639
309.035	0.1629
309.381	0.162
309.727	0.1603
310.073	0.1609
310.419	0.1592
310.764	0.1587
311.11	0.1585
311.455	0.1573
311.801	0.1565
312.146	0.1568
312.491	0.1559
312.837	0.1555
313.182	0.1554
313.527	0.155
313.872	0.1547
314.216	0.1546
314.561	0.1546
314.906	0.1545
315.251	0.1546
315.595	0.154
315.94	0.154
316.284	0.1548
316.628	0.1543
316.972	0.1545
317.317	0.1545
317.661	0.1556
318.005	0.1559
318.348	0.1556
318.692	0.1565
319.036	0.1561
319.38	0.157
319.723	0.1576
320.067	0.1582
320.41	0.1584
320.754	0.1596
321.097	0.1605
321.44	0.1611
321.783	0.1612
322.126	0.1622
322.469	0.1635
322.812	0.1641
323.155	0.1649
323.498	0.1659
323.84	0.1675
324.183	0.1677
324.525	0.1693
324.868	0.1699
325.21	0.1712
325.552	0.1718
325.894	0.1722
326.236	0.1738
326.578	0.1751
326.92	0.1764
327.262	0.177
327.604	0.1783
327.946	0.18
328.287	0.1812
328.629	0.182
328.97	0.1831
329.312	0.1847
329.653	0.185
329.994	0.1869
330.335	0.188
330.676	0.1894
331.017	0.1902
331.358	0.1913
331.699	0.193
332.04	0.1945
332.38	0.1951
332.721	0.1974
333.061	0.1983
333.402	0.1996
333.742	0.2007
334.083	0.202
334.423	0.2025
334.763	0.2041
335.103	0.2049
335.443	0.2061
335.783	0.2067
336.123	0.2072
336.462	0.2084
336.802	0.2094
337.141	0.2107
337.481	0.2122
337.82	0.2121
338.16	0.2136
338.499	0.2145
338.838	0.2152
339.177	0.2176
339.516	0.2182
339.855	0.2187
340.194	0.2202
340.533	0.22
340.872	0.2212
341.21	0.2224
341.549	0.2227
341.887	0.2235
342.226	0.224
342.564	0.2238
342.902	0.2249
343.24	0.2246
343.578	0.2251
343.916	0.2257
344.254	0.2259
344.592	0.2258
344.93	0.2261
345.268	0.2262
345.605	0.2257
345.943	0.227
346.28	0.2264
346.618	0.2268
346.955	0.2266
347.292	0.2266
347.629	0.2272
347.966	0.2277
348.303	0.2277
348.64	0.2282
348.977	0.2269
349.314	0.2272
349.65	0.2272
349.987	0.2279
350.324	0.2271
350.66	0.2266
350.996	0.2272
351.333	0.2255
351.669	0.2249
352.005	0.2253
352.341	0.2238
352.677	0.2235
353.013	0.2216
353.349	0.2219
353.685	0.2199
354.02	0.2191
354.356	0.2186
354.691	0.2173
355.027	0.2176
355.362	0.2153
355.697	0.2145
356.033	0.2139
356.368	0.2125
356.703	0.2116
357.038	0.2112
357.373	0.2108
357.707	0.2095
358.042	0.2078
358.377	0.2078
358.711	0.2068
359.046	0.2053
359.38	0.2046
359.715	0.2036
360.049	0.203
360.383	0.2015
360.717	0.2006
361.051	0.1986
361.385	0.1978
361.719	0.1954
362.053	0.1946
362.387	0.1925
362.72	0.1911
363.054	0.1893
363.387	0.1883
363.721	0.1861
364.054	0.184
364.387	0.1822
364.721	0.1816
365.054	0.1797
365.387	0.1777
365.72	0.1764
366.053	0.1752
366.385	0.1734
366.718	0.172
367.051	0.1702
367.383	0.1693
367.716	0.1675
368.048	0.167
368.381	0.1658
368.713	0.1646
369.045	0.1631
369.377	0.1619
369.709	0.1605
370.041	0.1594
370.373	0.158
370.705	0.1563
371.037	0.1543
371.368	0.1532
371.7	0.1519
372.031	0.1505
372.363	0.1481
372.694	0.1469
373.025	0.1449
373.356	0.1425
373.688	0.1404
374.019	0.1391
374.35	0.1372
374.68	0.1351
375.011	0.1331
375.342	0.1311
375.673	0.1287
376.003	0.1276
376.334	0.1261
376.664	0.125
376.995	0.1229
377.325	0.1226
377.655	0.1207
377.985	0.119
378.315	0.1179
378.645	0.1168
378.975	0.1151
379.305	0.1144
379.635	0.1136
379.964	0.1113
380.294	0.1107
380.623	0.1092
380.953	0.1078
381.282	0.1069
381.611	0.1052
381.941	0.1039
382.27	0.1036
382.599	0.1011
382.928	0.1005
383.257	0.0986
383.585	0.0977
383.914	0.0962
384.243	0.0946
384.571	0.0929
384.9	0.0914
385.228	0.0898
385.557	0.088
385.885	0.0875
386.213	0.0855
386.541	0.0838
386.869	0.083
387.197	0.081
387.525	0.0794
387.853	0.0782
388.181	0.0775
388.508	0.0765
388.836	0.0757
389.164	0.0742
389.491	0.0731
389.818	0.0717
390.146	0.0704
390.473	0.0688
390.8	0.0689
391.127	0.0674
391.454	0.0663
391.781	0.066
392.108	0.0646
392.435	0.0637
392.761	0.0627
393.088	0.062
393.415	0.0608
393.741	0.0607
394.067	0.06
394.394	0.0589
394.72	0.0585
395.046	0.0577
395.372	0.0563
395.698	0.0551
396.024	0.055
396.35	0.0538
396.676	0.0542
397.001	0.0536
397.327	0.0519
397.653	0.0507
397.978	0.0501
398.303	0.0491
398.629	0.0487
398.954	0.0479
399.279	0.0482
399.604	0.047
399.929	0.0464
400.254	0.0459
400.579	0.0455
400.904	0.0444
401.229	0.0435
401.553	0.043
401.878	0.0425
402.202	0.0424
402.527	0.0423
402.851	0.0424
403.175	0.0409
403.5	0.0413
403.824	0.0416
404.148	0.0403
404.472	0.0403
404.796	0.0394
405.119	0.0391
405.443	0.0392
405.767	0.0389
406.09	0.0384
406.414	0.0387
406.737	0.038
407.061	0.0382
407.384	0.0382
407.707	0.0374
408.03	0.0379
408.353	0.0374
408.676	0.0371
408.999	0.0371
409.322	0.0367
409.645	0.0375
409.968	0.0369
410.29	0.0371
410.613	0.0366
410.935	0.0364
411.258	0.0371
411.58	0.0365
411.902	0.0363
412.224	0.0367
412.546	0.0369
412.868	0.0358
413.19	0.0365
413.512	0.0365
413.834	0.0365
414.156	0.0371
414.477	0.0359
414.799	0.0359
415.121	0.0367
415.442	0.0364
415.763	0.0368
416.085	0.0363
416.406	0.0367
416.727	0.0371
417.048	0.0364
417.369	0.0364
417.69	0.036
418.011	0.037
418.331	0.0367
418.652	0.037
418.973	0.0368
419.293	0.0364
419.614	0.0371
419.934	0.0365
420.254	0.0373
420.574	0.0363
420.895	0.0371
421.215	0.036
421.535	0.0358
421.855	0.0366
422.174	0.0356
422.494	0.0368
422.814	0.0372
423.134	0.0368
423.453	0.0367
423.773	0.0366
424.092	0.0368
424.411	0.0372
424.731	0.0377
425.05	0.0372
425.369	0.0375
425.688	0.0377
426.007	0.0377
426.326	0.0381
426.644	0.0388
426.963	0.0382
427.282	0.0383
427.6	0.038
427.919	0.0381
428.237	0.0383
428.556	0.0391
428.874	0.0385
429.192	0.0382
429.51	0.038
429.828	0.0381
430.146	0.0385
430.464	0.0385
430.782	0.0384
431.1	0.0387
431.418	0.0381
431.735	0.0379
432.053	0.0386
432.37	0.0383
432.688	0.0384
433.005	0.0388
433.322	0.0392
433.639	0.039
433.957	0.0392
434.274	0.0393
434.591	0.0383
434.907	0.0398
435.224	0.0389
435.541	0.0394
435.858	0.0404
436.174	0.0396
436.491	0.0395
436.807	0.0391
437.124	0.0381
437.44	0.0379
437.756	0.0382
438.072	0.0387
438.388	0.0392
438.704	0.0397
439.02	0.0391
439.336	0.0388
439.652	0.0386
439.968	0.039
440.283	0.0387
440.599	0.0387
440.914	0.0387
441.23	0.0389
441.545	0.0386
441.86	0.0387
442.175	0.0388
442.491	0.0386
442.806	0.0385
443.121	0.0389
443.435	0.0384
443.75	0.0384
444.065	0.0384
444.38	0.0389
444.694	0.0385
445.009	0.0386
445.323	0.0389
445.638	0.0383
445.952	0.0388
446.266	0.0378
446.58	0.039
446.894	0.0387
447.208	0.039
447.522	0.0388
447.836	0.0376
448.15	0.0376
448.464	0.0377
448.777	0.0373
449.091	0.0372
449.404	0.0381
449.718	0.0383
450.031	0.0378
450.345	0.0372
450.658	0.0378
450.971	0.0373
451.284	0.0369
451.597	0.0374
451.91	0.0383
452.223	0.0368
452.535	0.0379
452.848	0.037
453.161	0.0367
453.473	0.0372
453.786	0.037
454.098	0.0362
454.411	0.0364
454.723	0.0362
455.035	0.0357
455.347	0.0375
455.659	0.0367
455.971	0.0365
456.283	0.0364
456.595	0.0358
456.907	0.0365
457.218	0.0362
457.53	0.0356
457.841	0.0348
458.153	0.0352
458.464	0.0346
458.776	0.034
459.087	0.0344
459.398	0.0339
459.709	0.0338
460.02	0.0345
460.331	0.0338
460.642	0.034
460.953	0.0334
461.263	0.034
461.574	0.0338
461.885	0.0332
462.195	0.0336
462.506	0.0336
462.816	0.0334
463.126	0.0321
463.437	0.0326
463.747	0.0314
464.057	0.0318
464.367	0.0323
464.677	0.0317
464.987	0.0315
465.296	0.0314
465.606	0.0304
465.916	0.03
466.225	0.0304
466.535	0.0304
466.844	0.0304
467.154	0.0306
467.463	0.0303
467.772	0.03
468.081	0.0297
468.39	0.0294
468.699	0.0297
469.008	0.0298
469.317	0.0295
469.626	0.0292
469.935	0.029
470.243	0.0295
470.552	0.0291
470.86	0.0295
471.169	0.0284
471.477	0.0282
471.785	0.0288
472.093	0.0283
472.402	0.0282
472.71	0.0275
473.018	0.0277
473.326	0.0266
473.633	0.0272
473.941	0.0274
474.249	0.0266
474.556	0.0263
474.864	0.0262
475.171	0.025
475.479	0.0256
475.786	0.0258
476.094	0.0268
476.401	0.0252
476.708	0.0249
477.015	0.0254
477.322	0.0252
477.629	0.0246
477.936	0.0243
478.242	0.0241
478.549	0.0247
478.856	0.024
479.162	0.0239
479.469	0.0247
479.775	0.0235
480.081	0.0227
480.388	0.0234
480.694	0.0232
481	0.0227
481.306	0.0233
481.612	0.0234
481.918	0.0219
482.224	0.0223
482.53	0.0223
482.835	0.0216
483.141	0.0207
483.446	0.021
483.752	0.0206
484.057	0.0201
484.363	0.02
484.668	0.0199
484.973	0.0195
485.278	0.0197
485.583	0.0195
485.888	0.019
486.193	0.0188
486.498	0.0192
486.803	0.0199
487.107	0.0192
487.412	0.0183
487.717	0.0183
488.021	0.0185
488.325	0.0177
488.63	0.0174
488.934	0.0182
489.238	0.0182
489.542	0.0181
489.846	0.0162
490.15	0.0182
490.454	0.0175
490.758	0.0168
491.062	0.0169
491.366	0.0159
491.669	0.0163
491.973	0.0163
492.276	0.0163
492.58	0.0152
492.883	0.0154
493.186	0.0157
493.489	0.0154
493.792	0.016
494.096	0.0156
494.399	0.0151
494.701	0.0156
495.004	0.0152
495.307	0.0142
495.61	0.0138
495.912	0.0136
496.215	0.0134
496.517	0.0139
496.82	0.0125
497.122	0.0139
497.424	0.0127
497.727	0.0131
498.029	0.0143
498.331	0.0136
498.633	0.0133
498.935	0.0125
499.237	0.013
499.538	0.0117
499.84	0.0127
500.142	0.013
500.443	0.0127
500.745	0.012
501.046	0.0128
501.348	0.0116
501.649	0.0117
501.95	0.0112
502.251	0.0112
502.552	0.0109
502.853	0.0106
503.154	0.0107
503.455	0.0096
503.756	0.01
504.057	0.0102
504.357	0.0104
504.658	0.01
504.958	0.0099
505.259	0.0111
505.559	0.0103
505.859	0.0101
506.16	0.0109
506.46	0.01
506.76	0.0097
507.06	0.0089
507.36	0.0102
507.66	0.0096
507.96	0.0095
508.259	0.0091
508.559	0.0092
508.859	0.0094
509.158	0.0088
509.457	0.0083
509.757	0.0092
510.056	0.0086
510.355	0.0079
510.655	0.0075
510.954	0.0082
511.253	0.0081
511.552	0.0082
511.851	0.0076
512.149	0.007
512.448	0.0079
512.747	0.0084
513.045	0.0071
513.344	0.0081
513.642	0.0078
513.941	0.0067
514.239	0.0082
514.537	0.0073
514.836	0.0076
515.134	0.0067
515.432	0.0068
515.73	0.0081
516.028	0.0066
516.326	0.0073
516.623	0.0063
516.921	0.0073
517.219	0.0073
517.516	0.0071
517.814	0.0063
518.111	0.0075
518.409	0.0083
518.706	0.0074
519.003	0.0072
519.3	0.0057
519.597	0.0064
519.894	0.0064
520.191	0.0072
520.488	0.006
520.785	0.0048
521.082	0.0063
521.378	0.006
521.675	0.0049
521.971	0.0048
522.268	0.0055
522.564	0.0062
522.861	0.0059
523.157	0.0048
523.453	0.0052
523.749	0.0058
524.045	0.0055
524.341	0.0055
524.637	0.0052
524.933	0.0044
525.229	0.0046
525.524	0.004
525.82	0.005
526.115	0.0052
526.411	0.0047
526.706	0.0042
527.002	0.0056
527.297	0.0041
527.592	0.0067
527.887	0.0049
528.182	0.0059
528.477	0.0064
528.772	0.0047
529.067	0.0053
529.362	0.0052
529.657	0.0047
529.951	0.0043
530.246	0.0035
530.54	0.0027
530.835	0.0038
531.129	0.0038
531.423	0.004
531.718	0.0031
532.012	0.0045
532.306	0.0038
532.6	0.0036
532.894	0.0035
533.188	0.0046
533.482	0.0033
533.775	0.0039
534.069	0.0027
534.363	0.0022
534.656	0.0029
534.95	0.0025
535.243	0.0035
535.536	0.0032
535.83	0.0036
536.123	0.0031
536.416	0.0034
536.709	0.0036
537.002	0.0039
537.295	0.0035
537.588	0.0039
537.881	0.0029
538.173	0.0026
538.466	0.0032
538.759	0.0033
539.051	0.0024
539.344	0.0024
539.636	0.0029
539.928	0.0029
540.22	0.0035
540.513	0.0036
540.805	0.0034
541.097	0.0032
541.389	0.0025
541.681	0.0029
541.972	0.004
542.264	0.0024
542.556	0.0035
542.847	0.0034
543.139	0.0036
543.431	0.0038
543.722	0.0038
544.013	0.0044
544.305	0.0057
544.596	0.0045
544.887	0.0032
545.178	0.0036
545.469	0.0028
545.76	0.0025
546.051	0.0038
546.342	0.0042
546.632	0.0022
546.923	0.0033
547.214	0.0035
547.504	0.0035
547.795	0.0039
548.085	0.0032
548.375	0.0028
548.666	0.0036
548.956	0.0022
549.246	0.0043
549.536	0.0026
549.826	0.0038
550.116	0.0046
550.406	0.0038
550.695	0.0043
550.985	0.0041
551.275	0.0047
551.564	0.0041
551.854	0.0044
552.143	0.004
552.433	0.0044
552.722	0.0043
553.011	0.0032
553.3	0.0046
553.589	0.0033
553.879	0.0035
554.167	0.0042
554.456	0.0033
554.745	0.0035
555.034	0.0023
555.323	0.0017
555.611	0.0028
555.9	0.0038
556.188	0.0037
556.477	0.0036
556.765	0.0019
557.053	0.003
557.342	0.002
557.63	0.0034
557.918	0.0031
558.206	0.004
558.494	0.0036
558.782	0.0033
559.069	0.0039
559.357	0.0036
559.645	0.0022
559.932	0.0028
560.22	0.0041
560.507	0.0037
560.795	0.0027
561.082	0.0024
561.37	0.0029
561.657	0.0026
561.944	0.0031
562.231	0.0027
562.518	0.0028
562.805	0.0038
563.092	0.0045
563.379	0.0037
563.665	0.0036
563.952	0.0035
564.239	0.004
564.525	0.0045
564.811	0.0045
565.098	0.0042
565.384	0.0044
565.67	0.0036
565.957	0.0036
566.243	0.0037
566.529	0.0041
566.815	0.0051
567.101	0.0037
567.387	0.0037
567.672	0.003
567.958	0.0039
568.244	0.0037
568.529	0.0034
568.815	0.0024
569.1	0.004
569.386	0.0035
569.671	0.0026
569.956	0.0038
570.242	0.0036
570.527	0.0042
570.812	0.0035
571.097	0.0039
571.382	0.0035
571.666	0.0027
571.951	0.0033
572.236	0.0038
572.521	0.0022
572.805	0.0034
573.09	0.0033
573.374	0.0033
573.659	0.0027
573.943	0.0029
574.227	0.0029
574.511	0.0038
574.795	0.003
575.079	0.0032
575.363	0.0032
575.647	0.0034
575.931	0.0036
576.215	0.0035
576.499	0.0026
576.782	0.0029
577.066	0.0024
577.349	0.0025
577.633	0.0034
577.916	0.0032
578.2	0.0038
578.483	0.0034
578.766	0.0021
579.049	0.0034
579.332	0.0031
579.615	0.0031
579.898	0.0038
580.181	0.0029
580.464	0.0024
580.746	0.0022
581.029	0.0029
581.312	0.0023
581.594	0.0024
581.877	0.0027
582.159	0.0029
582.441	0.0031
582.724	0.0026
583.006	0.0028
583.288	0.0024
583.57	0.0022
583.852	0.0021
584.134	0.0027
584.416	0.0033
584.697	0.0031
584.979	0.003
585.261	0.0027
585.542	0.0025
585.824	0.0026
586.105	0.003
586.387	0.0022
586.668	0.0027
586.949	0.0032
587.231	0.0028
587.512	0.0027
587.793	0.0026
588.074	0.0028
588.355	0.0031
588.636	0.0035
588.916	0.0028
589.197	0.004
589.478	0.0038
589.758	0.0029
590.039	0.0027
590.319	0.0025
590.6	0.0025
590.88	0.0022
591.16	0.0026
591.441	0.0033
591.721	0.0031
592.001	0.0029
592.281	0.0027
592.561	0.0037
592.841	0.0033
593.12	0.003
593.4	0.002
593.68	0.0032
593.959	0.0021
594.239	0.0032
594.518	0.0029
594.798	0.0034
595.077	0.0038
595.356	0.0025
595.636	0.0031
595.915	0.003
596.194	0.0039
596.473	0.0033
596.752	0.0028
