Data from 03 0.2 mM BQDS 0.4 mM K2Cr2O7 1 M H2SO4 5 min_Absorbance_22-02-42-229.txt Node
Date: Tue Dec 07 22:02:42 EST 2021
User: kwabilab-user
Spectrometer: HDX00518
Trigger mode: 0
Integration Time (sec): 5.000000E-2
Scans to average: 50
Nonlinearity correction enabled: false
Boxcar width: 0
Storing dark spectrum: false
XAxis mode: Wavelengths
Number of Pixels in Spectrum: 2068
>>>>>Begin Spectral Data<<<<<
195.27	-0.0451
195.642	-0.0212
196.014	0.0128
196.386	-0.1645
196.758	-0.013
197.129	0.0051
197.501	0.0311
197.872	0.0928
198.244	0.1054
198.615	0.1114
198.986	0.113
199.357	0.0961
199.728	0.1156
200.099	0.0948
200.47	0.0881
200.841	0.0918
201.212	0.0866
201.582	0.1002
201.953	0.1082
202.323	0.098
202.694	0.0867
203.064	0.117
203.434	0.0891
203.804	0.1234
204.174	0.1123
204.544	0.1073
204.914	0.0879
205.284	0.0988
205.653	0.0897
206.023	0.1137
206.393	0.1137
206.762	0.1168
207.131	0.113
207.501	0.1126
207.87	0.1195
208.239	0.1128
208.608	0.1102
208.977	0.132
209.346	0.1323
209.715	0.1208
210.083	0.1426
210.452	0.1237
210.82	0.1421
211.189	0.1286
211.557	0.1291
211.925	0.1522
212.294	0.1593
212.662	0.1507
213.03	0.1586
213.398	0.1632
213.766	0.1801
214.133	0.185
214.501	0.1984
214.869	0.1992
215.236	0.2227
215.604	0.226
215.971	0.2329
216.338	0.2493
216.705	0.2797
217.072	0.2804
217.439	0.3107
217.806	0.3683
218.173	0.362
218.54	0.4073
218.907	0.4368
219.273	0.4738
219.64	0.5202
220.006	0.5362
220.373	0.5847
220.739	0.6166
221.105	0.6499
221.471	0.6854
221.837	0.7392
222.203	0.7708
222.569	0.797
222.935	0.8302
223.3	0.86
223.666	0.8891
224.031	0.9054
224.397	0.9325
224.762	0.9423
225.127	0.9771
225.493	0.9882
225.858	0.9949
226.223	1.0103
226.588	1.0208
226.952	1.0254
227.317	1.0304
227.682	1.0233
228.046	1.0276
228.411	1.0298
228.775	1.0273
229.14	1.0243
229.504	1.0185
229.868	1.0137
230.232	1.0073
230.596	1.0018
230.96	0.9969
231.324	0.9865
231.688	0.9738
232.052	0.9702
232.415	0.9583
232.779	0.9519
233.142	0.9433
233.505	0.9359
233.869	0.9268
234.232	0.9166
234.595	0.9027
234.958	0.8973
235.321	0.8889
235.684	0.879
236.047	0.8683
236.409	0.8618
236.772	0.8528
237.134	0.8445
237.497	0.8357
237.859	0.8271
238.222	0.8215
238.584	0.8117
238.946	0.8039
239.308	0.795
239.67	0.7915
240.032	0.7832
240.393	0.7763
240.755	0.7681
241.117	0.7607
241.478	0.7591
241.84	0.7516
242.201	0.7454
242.562	0.7392
242.924	0.7336
243.285	0.7273
243.646	0.7237
244.007	0.7214
244.368	0.7176
244.728	0.7129
245.089	0.7071
245.45	0.7063
245.81	0.6995
246.171	0.6961
246.531	0.6931
246.891	0.6904
247.252	0.6878
247.612	0.6866
247.972	0.6835
248.332	0.6827
248.692	0.678
249.051	0.675
249.411	0.6748
249.771	0.6721
250.13	0.6718
250.49	0.6695
250.849	0.6666
251.208	0.667
251.568	0.6658
251.927	0.6624
252.286	0.6646
252.645	0.6626
253.004	0.661
253.363	0.6579
253.721	0.656
254.08	0.6581
254.439	0.6581
254.797	0.6552
255.155	0.6535
255.514	0.6533
255.872	0.6518
256.23	0.6485
256.588	0.6505
256.946	0.6502
257.304	0.6512
257.662	0.6492
258.02	0.6485
258.377	0.6478
258.735	0.6464
259.093	0.6454
259.45	0.645
259.807	0.6428
260.165	0.6438
260.522	0.6415
260.879	0.6386
261.236	0.6407
261.593	0.6371
261.95	0.6355
262.306	0.6377
262.663	0.6353
263.02	0.6337
263.376	0.6306
263.733	0.6298
264.089	0.6283
264.445	0.6256
264.802	0.6254
265.158	0.622
265.514	0.6208
265.87	0.6184
266.226	0.6163
266.581	0.6139
266.937	0.6123
267.293	0.6117
267.648	0.6088
268.004	0.6045
268.359	0.6031
268.714	0.601
269.07	0.5949
269.425	0.5945
269.78	0.5932
270.135	0.5916
270.49	0.5874
270.844	0.5846
271.199	0.5829
271.554	0.5777
271.908	0.5744
272.263	0.5712
272.617	0.5678
272.972	0.5651
273.326	0.5623
273.68	0.5574
274.034	0.5546
274.388	0.5508
274.742	0.5474
275.096	0.5432
275.45	0.5398
275.803	0.5357
276.157	0.5315
276.51	0.5276
276.864	0.525
277.217	0.5199
277.571	0.5145
277.924	0.511
278.277	0.5063
278.63	0.5019
278.983	0.497
279.336	0.4947
279.688	0.4891
280.041	0.4843
280.394	0.4783
280.746	0.4762
281.099	0.4706
281.451	0.4659
281.803	0.4613
282.156	0.457
282.508	0.4526
282.86	0.4477
283.212	0.4433
283.564	0.439
283.916	0.4344
284.267	0.4298
284.619	0.4259
284.971	0.4205
285.322	0.4166
285.673	0.4127
286.025	0.4087
286.376	0.4036
286.727	0.399
287.078	0.3938
287.429	0.3914
287.78	0.3849
288.131	0.3816
288.482	0.376
288.833	0.3729
289.183	0.3682
289.534	0.3635
289.884	0.3587
290.235	0.3553
290.585	0.351
290.935	0.3466
291.285	0.3417
291.635	0.3385
291.985	0.3335
292.335	0.3289
292.685	0.3255
293.035	0.3215
293.384	0.3167
293.734	0.3129
294.083	0.3085
294.433	0.3044
294.782	0.3005
295.131	0.2965
295.48	0.2931
295.829	0.2894
296.179	0.2845
296.527	0.2817
296.876	0.2778
297.225	0.2751
297.574	0.2701
297.922	0.2677
298.271	0.2634
298.619	0.2594
298.968	0.2566
299.316	0.2523
299.664	0.2499
300.012	0.2462
300.36	0.242
300.708	0.2397
301.056	0.2372
301.404	0.2346
301.752	0.2317
302.099	0.2289
302.447	0.2267
302.794	0.2239
303.142	0.2212
303.489	0.2182
303.836	0.2161
304.183	0.2133
304.531	0.2117
304.878	0.2093
305.224	0.2069
305.571	0.2056
305.918	0.2033
306.265	0.2015
306.611	0.1993
306.958	0.1992
307.304	0.1966
307.651	0.1954
307.997	0.1938
308.343	0.1926
308.689	0.1911
309.035	0.1903
309.381	0.1896
309.727	0.1873
310.073	0.1868
310.419	0.1866
310.764	0.1853
311.11	0.1844
311.455	0.1839
311.801	0.183
312.146	0.1826
312.491	0.1823
312.837	0.1824
313.182	0.182
313.527	0.181
313.872	0.1806
314.216	0.181
314.561	0.1805
314.906	0.1802
315.251	0.1807
315.595	0.1803
315.94	0.1802
316.284	0.1804
316.628	0.18
316.972	0.1804
317.317	0.1807
317.661	0.1814
318.005	0.1821
318.348	0.1824
318.692	0.1827
319.036	0.1828
319.38	0.1837
319.723	0.1848
320.067	0.1841
320.41	0.1853
320.754	0.1864
321.097	0.1874
321.44	0.1877
321.783	0.1884
322.126	0.1891
322.469	0.1907
322.812	0.1916
323.155	0.1931
323.498	0.1937
323.84	0.1953
324.183	0.1959
324.525	0.1969
324.868	0.1987
325.21	0.1999
325.552	0.2016
325.894	0.2019
326.236	0.2025
326.578	0.2049
326.92	0.2058
327.262	0.207
327.604	0.2084
327.946	0.2099
328.287	0.2115
328.629	0.2124
328.97	0.2134
329.312	0.2155
329.653	0.2165
329.994	0.2184
330.335	0.22
330.676	0.2211
331.017	0.2218
331.358	0.2242
331.699	0.2251
332.04	0.2271
332.38	0.2284
332.721	0.231
333.061	0.2305
333.402	0.2335
333.742	0.2342
334.083	0.2357
334.423	0.2367
334.763	0.2382
335.103	0.2395
335.443	0.2406
335.783	0.2416
336.123	0.2419
336.462	0.2439
336.802	0.2449
337.141	0.2461
337.481	0.2472
337.82	0.2485
338.16	0.2494
338.499	0.2501
338.838	0.252
339.177	0.253
339.516	0.2543
339.855	0.2555
340.194	0.2565
340.533	0.2573
340.872	0.2584
341.21	0.2598
341.549	0.2598
341.887	0.2616
342.226	0.2622
342.564	0.2616
342.902	0.2626
343.24	0.2626
343.578	0.2633
343.916	0.2641
344.254	0.2644
344.592	0.2645
344.93	0.2649
345.268	0.2647
345.605	0.2647
345.943	0.2653
346.28	0.2653
346.618	0.2656
346.955	0.2653
347.292	0.2659
347.629	0.2666
347.966	0.2662
348.303	0.2672
348.64	0.2666
348.977	0.2667
349.314	0.266
349.65	0.2664
349.987	0.2663
350.324	0.2662
350.66	0.2657
350.996	0.2656
351.333	0.2644
351.669	0.264
352.005	0.2634
352.341	0.2621
352.677	0.2617
353.013	0.2601
353.349	0.2598
353.685	0.2582
354.02	0.2572
354.356	0.2567
354.691	0.2551
355.027	0.2545
355.362	0.2531
355.697	0.2529
356.033	0.2507
356.368	0.25
356.703	0.2492
357.038	0.2483
357.373	0.2475
357.707	0.2469
358.042	0.2454
358.377	0.2443
358.711	0.2427
359.046	0.2422
359.38	0.2404
359.715	0.2403
360.049	0.2383
360.383	0.2377
360.717	0.236
361.051	0.2336
361.385	0.2329
361.719	0.2305
362.053	0.2294
362.387	0.2273
362.72	0.2249
363.054	0.2227
363.387	0.2214
363.721	0.2197
364.054	0.2173
364.387	0.2153
364.721	0.2141
365.054	0.2121
365.387	0.2104
365.72	0.2085
366.053	0.2068
366.385	0.2044
366.718	0.2045
367.051	0.2015
367.383	0.2003
367.716	0.1986
368.048	0.1976
368.381	0.1955
368.713	0.1945
369.045	0.1937
369.377	0.1912
369.709	0.19
370.041	0.1886
370.373	0.1873
370.705	0.1864
371.037	0.1831
371.368	0.1816
371.7	0.1807
372.031	0.179
372.363	0.1769
372.694	0.1744
373.025	0.1722
373.356	0.1701
373.688	0.1683
374.019	0.1657
374.35	0.1638
374.68	0.1623
375.011	0.1598
375.342	0.1569
375.673	0.1551
376.003	0.1535
376.334	0.1518
376.664	0.1496
376.995	0.1485
377.325	0.1469
377.655	0.1453
377.985	0.1436
378.315	0.142
378.645	0.1406
378.975	0.1398
379.305	0.1377
379.635	0.1369
379.964	0.1343
380.294	0.1333
380.623	0.1324
380.953	0.1311
381.282	0.1298
381.611	0.128
381.941	0.1261
382.27	0.125
382.599	0.1235
382.928	0.1217
383.257	0.1201
383.585	0.119
383.914	0.1172
384.243	0.1156
384.571	0.1132
384.9	0.1117
385.228	0.1098
385.557	0.1087
385.885	0.1072
386.213	0.1056
386.541	0.1031
386.869	0.1011
387.197	0.0998
387.525	0.0976
387.853	0.0961
388.181	0.0953
388.508	0.0942
388.836	0.093
389.164	0.0911
389.491	0.0899
389.818	0.0886
390.146	0.0874
390.473	0.0856
390.8	0.0851
391.127	0.0832
391.454	0.0826
391.781	0.0813
392.108	0.0803
392.435	0.0789
392.761	0.0774
393.088	0.0775
393.415	0.0763
393.741	0.0759
394.067	0.0746
394.394	0.0738
394.72	0.0735
395.046	0.0716
395.372	0.0707
395.698	0.0693
396.024	0.0694
396.35	0.0678
396.676	0.0677
397.001	0.0668
397.327	0.0649
397.653	0.0639
397.978	0.0632
398.303	0.0612
398.629	0.0613
398.954	0.0605
399.279	0.0603
399.604	0.0591
399.929	0.0589
400.254	0.0576
400.579	0.0567
400.904	0.056
401.229	0.0555
401.553	0.0544
401.878	0.0539
402.202	0.0535
402.527	0.0534
402.851	0.053
403.175	0.0522
403.5	0.0516
403.824	0.0518
404.148	0.0511
404.472	0.0511
404.796	0.0496
405.119	0.0492
405.443	0.0495
405.767	0.0489
406.09	0.0481
406.414	0.0491
406.737	0.0478
407.061	0.0478
407.384	0.0481
407.707	0.0475
408.03	0.0474
408.353	0.048
408.676	0.0476
408.999	0.0463
409.322	0.0465
409.645	0.0467
409.968	0.0463
410.29	0.0463
410.613	0.0459
410.935	0.046
411.258	0.0462
411.58	0.0456
411.902	0.046
412.224	0.0459
412.546	0.0457
412.868	0.0452
413.19	0.0456
413.512	0.0456
413.834	0.0457
414.156	0.0462
414.477	0.0459
414.799	0.0456
415.121	0.0456
415.442	0.0454
415.763	0.046
416.085	0.0451
416.406	0.0459
416.727	0.0449
417.048	0.045
417.369	0.0453
417.69	0.0452
418.011	0.0459
418.331	0.0458
418.652	0.0451
418.973	0.0462
419.293	0.0449
419.614	0.0454
419.934	0.0453
420.254	0.046
420.574	0.045
420.895	0.0453
421.215	0.0455
421.535	0.0448
421.855	0.0455
422.174	0.0454
422.494	0.0453
422.814	0.0461
423.134	0.0457
423.453	0.0457
423.773	0.0458
424.092	0.0455
424.411	0.0451
424.731	0.0461
425.05	0.0458
425.369	0.0462
425.688	0.0461
426.007	0.0464
426.326	0.0472
426.644	0.0468
426.963	0.0465
427.282	0.0468
427.6	0.0467
427.919	0.0468
428.237	0.0466
428.556	0.0465
428.874	0.0463
429.192	0.0464
429.51	0.0461
429.828	0.0466
430.146	0.0476
430.464	0.0472
430.782	0.0467
431.1	0.0472
431.418	0.0467
431.735	0.0465
432.053	0.0471
432.37	0.0472
432.688	0.0469
433.005	0.0471
433.322	0.0473
433.639	0.0465
433.957	0.0471
434.274	0.0473
434.591	0.0468
434.907	0.0477
435.224	0.0471
435.541	0.0479
435.858	0.0484
436.174	0.0477
436.491	0.0473
436.807	0.0474
437.124	0.0465
437.44	0.0464
437.756	0.0471
438.072	0.0466
438.388	0.0476
438.704	0.0467
439.02	0.0471
439.336	0.0471
439.652	0.0466
439.968	0.0469
440.283	0.0471
440.599	0.0472
440.914	0.0463
441.23	0.0462
441.545	0.0466
441.86	0.0461
442.175	0.0467
442.491	0.0463
442.806	0.046
443.121	0.0461
443.435	0.0457
443.75	0.046
444.065	0.0465
444.38	0.0466
444.694	0.0462
445.009	0.0464
445.323	0.0463
445.638	0.0464
445.952	0.0461
446.266	0.0458
446.58	0.0461
446.894	0.046
447.208	0.0468
447.522	0.0462
447.836	0.0449
448.15	0.0451
448.464	0.0455
448.777	0.0453
449.091	0.045
449.404	0.0458
449.718	0.0461
450.031	0.0455
450.345	0.0443
450.658	0.0446
450.971	0.0439
451.284	0.0442
451.597	0.0447
451.91	0.0449
452.223	0.044
452.535	0.0448
452.848	0.0443
453.161	0.0437
453.473	0.0447
453.786	0.0443
454.098	0.0435
454.411	0.0437
454.723	0.0431
455.035	0.0436
455.347	0.0445
455.659	0.0438
455.971	0.0434
456.283	0.0432
456.595	0.0427
456.907	0.0435
457.218	0.043
457.53	0.0428
457.841	0.042
458.153	0.042
458.464	0.042
458.776	0.0407
459.087	0.0412
459.398	0.0417
459.709	0.0415
460.02	0.0403
460.331	0.0404
460.642	0.0405
460.953	0.0404
461.263	0.0409
461.574	0.0404
461.885	0.0399
462.195	0.0403
462.506	0.04
462.816	0.0397
463.126	0.0389
463.437	0.0388
463.747	0.0381
464.057	0.0386
464.367	0.0383
464.677	0.0381
464.987	0.0381
465.296	0.0374
465.606	0.0379
465.916	0.0367
466.225	0.0371
466.535	0.0362
466.844	0.0368
467.154	0.0374
467.463	0.036
467.772	0.0367
468.081	0.0355
468.39	0.036
468.699	0.0353
469.008	0.0353
469.317	0.0356
469.626	0.0349
469.935	0.0345
470.243	0.0352
470.552	0.0349
470.86	0.0351
471.169	0.0339
471.477	0.0339
471.785	0.0343
472.093	0.0341
472.402	0.0335
472.71	0.033
473.018	0.0328
473.326	0.0322
473.633	0.032
473.941	0.0322
474.249	0.0317
474.556	0.0318
474.864	0.0308
475.171	0.0312
475.479	0.0318
475.786	0.0317
476.094	0.0308
476.401	0.0309
476.708	0.0306
477.015	0.0308
477.322	0.0303
477.629	0.0296
477.936	0.0296
478.242	0.0289
478.549	0.0286
478.856	0.0289
479.162	0.0292
479.469	0.0287
479.775	0.0283
480.081	0.028
480.388	0.0277
480.694	0.0274
481	0.0276
481.306	0.0281
481.612	0.027
481.918	0.026
482.224	0.0268
482.53	0.0264
482.835	0.026
483.141	0.0252
483.446	0.0251
483.752	0.0252
484.057	0.025
484.363	0.0245
484.668	0.0242
484.973	0.0247
485.278	0.0236
485.583	0.0235
485.888	0.0235
486.193	0.0232
486.498	0.0229
486.803	0.024
487.107	0.0229
487.412	0.0229
487.717	0.0224
488.021	0.0224
488.325	0.0221
488.63	0.0213
488.934	0.0223
489.238	0.022
489.542	0.0216
489.846	0.0201
490.15	0.0215
490.454	0.0205
490.758	0.0216
491.062	0.0204
491.366	0.0196
491.669	0.0202
491.973	0.0202
492.276	0.0204
492.58	0.0185
492.883	0.0197
493.186	0.0193
493.489	0.0191
493.792	0.0192
494.096	0.0187
494.399	0.019
494.701	0.0181
495.004	0.0177
495.307	0.0172
495.61	0.0171
495.912	0.0177
496.215	0.0169
496.517	0.0172
496.82	0.0162
497.122	0.0174
497.424	0.0162
497.727	0.0165
498.029	0.0171
498.331	0.0168
498.633	0.0165
498.935	0.016
499.237	0.0155
499.538	0.0153
499.84	0.0158
500.142	0.0162
500.443	0.0153
500.745	0.0153
501.046	0.0154
501.348	0.0142
501.649	0.015
501.95	0.0138
502.251	0.0133
502.552	0.0125
502.853	0.0119
503.154	0.0131
503.455	0.0128
503.756	0.013
504.057	0.0138
504.357	0.0126
504.658	0.0122
504.958	0.0123
505.259	0.014
505.559	0.0129
505.859	0.0121
506.16	0.0116
506.46	0.0124
506.76	0.0126
507.06	0.0112
507.36	0.0117
507.66	0.0118
507.96	0.0115
508.259	0.0113
508.559	0.011
508.859	0.0109
509.158	0.0107
509.457	0.0102
509.757	0.0118
510.056	0.0099
510.355	0.0106
510.655	0.0086
510.954	0.01
511.253	0.0096
511.552	0.0103
511.851	0.0096
512.149	0.0092
512.448	0.0092
512.747	0.0098
513.045	0.0078
513.344	0.0095
513.642	0.0096
513.941	0.0095
514.239	0.0082
514.537	0.0086
514.836	0.0092
515.134	0.0076
515.432	0.0082
515.73	0.009
516.028	0.0073
516.326	0.0091
516.623	0.0085
516.921	0.0081
517.219	0.0083
517.516	0.0085
517.814	0.0081
518.111	0.0084
518.409	0.009
518.706	0.008
519.003	0.008
519.3	0.0067
519.597	0.0064
519.894	0.0073
520.191	0.0082
520.488	0.0072
520.785	0.0056
521.082	0.0073
521.378	0.0072
521.675	0.0054
521.971	0.0065
522.268	0.0071
522.564	0.0063
522.861	0.0061
523.157	0.0057
523.453	0.0059
523.749	0.0059
524.045	0.0069
524.341	0.0067
524.637	0.0051
524.933	0.0056
525.229	0.0063
525.524	0.0059
525.82	0.0066
526.115	0.0054
526.411	0.0048
526.706	0.0055
527.002	0.0052
527.297	0.0042
527.592	0.0064
527.887	0.0053
528.182	0.0055
528.477	0.007
528.772	0.0054
529.067	0.0046
529.362	0.0047
529.657	0.0048
529.951	0.0052
530.246	0.0052
530.54	0.0032
530.835	0.0041
531.129	0.0041
531.423	0.0043
531.718	0.0036
532.012	0.0049
532.306	0.0039
532.6	0.004
532.894	0.0032
533.188	0.0057
533.482	0.0038
533.775	0.0044
534.069	0.0042
534.363	0.0029
534.656	0.0033
534.95	0.0021
535.243	0.0038
535.536	0.0038
535.83	0.0044
536.123	0.0028
536.416	0.0042
536.709	0.0039
537.002	0.0047
537.295	0.0038
537.588	0.0037
537.881	0.0037
538.173	0.0034
538.466	0.0041
538.759	0.0039
539.051	0.0027
539.344	0.0033
539.636	0.0032
539.928	0.0032
540.22	0.0028
540.513	0.0041
540.805	0.0032
541.097	0.003
541.389	0.0033
541.681	0.0036
541.972	0.0038
542.264	0.0033
542.556	0.0037
542.847	0.0033
543.139	0.004
543.431	0.0053
543.722	0.0035
544.013	0.0055
544.305	0.0056
544.596	0.0054
544.887	0.0046
545.178	0.0039
545.469	0.0026
545.76	0.0031
546.051	0.005
546.342	0.0044
546.632	0.003
546.923	0.0036
547.214	0.004
547.504	0.0038
547.795	0.0032
548.085	0.0039
548.375	0.0034
548.666	0.0044
548.956	0.0034
549.246	0.0038
549.536	0.0032
549.826	0.0033
550.116	0.0029
550.406	0.0038
550.695	0.0043
550.985	0.0034
551.275	0.004
551.564	0.0033
551.854	0.003
552.143	0.0034
552.433	0.0034
552.722	0.0028
553.011	0.0027
553.3	0.003
553.589	0.004
553.879	0.0022
554.167	0.0023
554.456	0.0024
554.745	0.0026
555.034	0.0024
555.323	0.0017
555.611	0.0024
555.9	0.0034
556.188	0.0027
556.477	0.0025
556.765	0.0029
557.053	0.0017
557.342	0.0016
557.63	0.0017
557.918	0.0023
558.206	0.0021
558.494	0.0034
558.782	0.0024
559.069	0.0027
559.357	0.003
559.645	0.0018
559.932	0.0023
560.22	0.0033
560.507	0.0039
560.795	0.0033
561.082	0.0027
561.37	0.0025
561.657	0.0022
561.944	0.0025
562.231	0.0022
562.518	0.002
562.805	0.0034
563.092	0.0042
563.379	0.0034
563.665	0.0026
563.952	0.0035
564.239	0.0034
564.525	0.0037
564.811	0.0037
565.098	0.0031
565.384	0.0033
565.67	0.0034
565.957	0.0026
566.243	0.004
566.529	0.0032
566.815	0.0052
567.101	0.0023
567.387	0.0026
567.672	0.0024
567.958	0.0025
568.244	0.0031
568.529	0.0024
568.815	0.0027
569.1	0.0025
569.386	0.0021
569.671	0.0025
569.956	0.0029
570.242	0.0027
570.527	0.0023
570.812	0.0027
571.097	0.0028
571.382	0.0022
571.666	0.0021
571.951	0.0025
572.236	0.0029
572.521	0.002
572.805	0.0031
573.09	0.0025
573.374	0.0025
573.659	0.002
573.943	0.0028
574.227	0.0022
574.511	0.0037
574.795	0.003
575.079	0.0029
575.363	0.0031
575.647	0.0033
575.931	0.0024
576.215	0.003
576.499	0.003
576.782	0.003
577.066	0.0027
577.349	0.0022
577.633	0.0036
577.916	0.0038
578.2	0.0042
578.483	0.0038
578.766	0.0032
579.049	0.004
579.332	0.0036
579.615	0.0033
579.898	0.0035
580.181	0.0028
580.464	0.0032
580.746	0.0024
581.029	0.003
581.312	0.0025
581.594	0.0029
581.877	0.0033
582.159	0.004
582.441	0.0028
582.724	0.003
583.006	0.0024
583.288	0.0019
583.57	0.0024
583.852	0.0023
584.134	0.002
584.416	0.0033
584.697	0.0025
584.979	0.0033
585.261	0.0037
585.542	0.0028
585.824	0.0031
586.105	0.003
586.387	0.0019
586.668	0.0025
586.949	0.0026
587.231	0.0028
587.512	0.0033
587.793	0.0031
588.074	0.0031
588.355	0.0032
588.636	0.0037
588.916	0.0033
589.197	0.0039
589.478	0.003
589.758	0.0028
590.039	0.0032
590.319	0.0031
590.6	0.0029
590.88	0.0029
591.16	0.0034
591.441	0.0032
591.721	0.0026
592.001	0.0033
592.281	0.0028
592.561	0.0028
592.841	0.0032
593.12	0.003
593.4	0.0024
593.68	0.0027
593.959	0.0028
594.239	0.0035
594.518	0.0029
594.798	0.0022
595.077	0.0022
595.356	0.0024
595.636	0.0035
595.915	0.0028
596.194	0.0037
596.473	0.0029
