Data from 03 0.2 mM BQDS 0.4 mM K2Cr2O7 1 M H2SO4 5 min_Absorbance_12-37-42-721.txt Node
Date: Wed Dec 08 12:37:42 EST 2021
User: kwabilab-user
Spectrometer: HDX00518
Trigger mode: 0
Integration Time (sec): 5.000000E-2
Scans to average: 50
Nonlinearity correction enabled: false
Boxcar width: 0
Storing dark spectrum: false
XAxis mode: Wavelengths
Number of Pixels in Spectrum: 2068
>>>>>Begin Spectral Data<<<<<
195.27	0.1954
195.642	0.2041
196.014	0.2139
196.386	0.0373
196.758	0.0653
197.129	0.0351
197.501	0.0643
197.872	0.0997
198.244	0.1192
198.615	0.1348
198.986	0.1276
199.357	0.1203
199.728	0.1155
200.099	0.1071
200.47	0.1232
200.841	0.1163
201.212	0.1182
201.582	0.1215
201.953	0.1282
202.323	0.1323
202.694	0.109
203.064	0.1254
203.434	0.1194
203.804	0.1418
204.174	0.1149
204.544	0.1088
204.914	0.1261
205.284	0.1331
205.653	0.1288
206.023	0.1368
206.393	0.1324
206.762	0.1412
207.131	0.1299
207.501	0.1291
207.87	0.1456
208.239	0.1372
208.608	0.1251
208.977	0.1364
209.346	0.1566
209.715	0.135
210.083	0.154
210.452	0.1582
210.82	0.145
211.189	0.1691
211.557	0.151
211.925	0.1712
212.294	0.175
212.662	0.1786
213.03	0.1784
213.398	0.1887
213.766	0.1962
214.133	0.1927
214.501	0.2074
214.869	0.2139
215.236	0.2596
215.604	0.2497
215.971	0.2487
216.338	0.2784
216.705	0.3163
217.072	0.3212
217.439	0.3295
217.806	0.3596
218.173	0.3968
218.54	0.4098
218.907	0.4514
219.273	0.4824
219.64	0.525
220.006	0.5589
220.373	0.5974
220.739	0.6437
221.105	0.6732
221.471	0.6961
221.837	0.7356
222.203	0.782
222.569	0.8003
222.935	0.8323
223.3	0.8582
223.666	0.8918
224.031	0.9131
224.397	0.9277
224.762	0.9469
225.127	0.9677
225.493	0.9834
225.858	0.9812
226.223	1.0005
226.588	1.0091
226.952	1.0083
227.317	1.0169
227.682	1.0101
228.046	1.004
228.411	1.0166
228.775	1.0123
229.14	0.9981
229.504	0.995
229.868	0.9947
230.232	0.9868
230.596	0.9821
230.96	0.9759
231.324	0.9622
231.688	0.9532
232.052	0.9462
232.415	0.9372
232.779	0.9255
233.142	0.9168
233.505	0.9113
233.869	0.902
234.232	0.8943
234.595	0.8785
234.958	0.8761
235.321	0.861
235.684	0.8507
236.047	0.8446
236.409	0.8331
236.772	0.8257
237.134	0.8165
237.497	0.8094
237.859	0.8043
238.222	0.7929
238.584	0.7821
238.946	0.7726
239.308	0.7681
239.67	0.7586
240.032	0.7539
240.393	0.7431
240.755	0.7399
241.117	0.7309
241.478	0.7237
241.84	0.7172
242.201	0.7067
242.562	0.703
242.924	0.6969
243.285	0.6892
243.646	0.6842
244.007	0.6782
244.368	0.6758
244.728	0.6704
245.089	0.6649
245.45	0.6595
245.81	0.6558
246.171	0.6522
246.531	0.6448
246.891	0.6423
247.252	0.6401
247.612	0.637
247.972	0.6325
248.332	0.6289
248.692	0.6244
249.051	0.6206
249.411	0.6196
249.771	0.6139
250.13	0.6135
250.49	0.6097
250.849	0.6067
251.208	0.6039
251.568	0.6018
251.927	0.5978
252.286	0.5981
252.645	0.5965
253.004	0.5911
253.363	0.5901
253.721	0.5898
254.08	0.5877
254.439	0.5861
254.797	0.582
255.155	0.5816
255.514	0.5803
255.872	0.5784
256.23	0.5771
256.588	0.5753
256.946	0.5719
257.304	0.5711
257.662	0.5695
258.02	0.5678
258.377	0.5681
258.735	0.564
259.093	0.5641
259.45	0.5614
259.807	0.5607
260.165	0.5579
260.522	0.5548
260.879	0.5537
261.236	0.5526
261.593	0.5523
261.95	0.5482
262.306	0.5473
262.663	0.5453
263.02	0.5443
263.376	0.5418
263.733	0.54
264.089	0.5362
264.445	0.5366
264.802	0.5339
265.158	0.5307
265.514	0.5296
265.87	0.5294
266.226	0.525
266.581	0.5222
266.937	0.5194
267.293	0.5193
267.648	0.5161
268.004	0.5148
268.359	0.5112
268.714	0.5075
269.07	0.5059
269.425	0.5037
269.78	0.5029
270.135	0.499
270.49	0.4976
270.844	0.495
271.199	0.4923
271.554	0.49
271.908	0.4864
272.263	0.4847
272.617	0.4817
272.972	0.479
273.326	0.4748
273.68	0.4731
274.034	0.4698
274.388	0.4677
274.742	0.4632
275.096	0.4602
275.45	0.4573
275.803	0.4542
276.157	0.4498
276.51	0.4479
276.864	0.4456
277.217	0.4431
277.571	0.4377
277.924	0.4351
278.277	0.4304
278.63	0.428
278.983	0.4247
279.336	0.4208
279.688	0.418
280.041	0.4133
280.394	0.4099
280.746	0.4064
281.099	0.4025
281.451	0.3983
281.803	0.3951
282.156	0.3915
282.508	0.3885
282.86	0.3848
283.212	0.38
283.564	0.3763
283.916	0.3731
284.267	0.3695
284.619	0.3661
284.971	0.3619
285.322	0.3585
285.673	0.3543
286.025	0.3522
286.376	0.348
286.727	0.3436
287.078	0.3398
287.429	0.3373
287.78	0.3314
288.131	0.3279
288.482	0.3245
288.833	0.3211
289.183	0.3174
289.534	0.3139
289.884	0.3089
290.235	0.3054
290.585	0.3013
290.935	0.298
291.285	0.2942
291.635	0.292
291.985	0.2867
292.335	0.2832
292.685	0.2796
293.035	0.2761
293.384	0.2723
293.734	0.2684
294.083	0.265
294.433	0.2607
294.782	0.2581
295.131	0.2544
295.48	0.2517
295.829	0.2483
296.179	0.2445
296.527	0.2408
296.876	0.2385
297.225	0.2361
297.574	0.2313
297.922	0.2286
298.271	0.226
298.619	0.2222
298.968	0.2201
299.316	0.2157
299.664	0.2139
300.012	0.2108
300.36	0.2072
300.708	0.2056
301.056	0.2026
301.404	0.2001
301.752	0.1976
302.099	0.1954
302.447	0.193
302.794	0.191
303.142	0.1886
303.489	0.1861
303.836	0.1843
304.183	0.1826
304.531	0.1804
304.878	0.1789
305.224	0.1767
305.571	0.1749
305.918	0.1739
306.265	0.1712
306.611	0.1706
306.958	0.1689
307.304	0.1681
307.651	0.1665
307.997	0.1651
308.343	0.164
308.689	0.1632
309.035	0.1626
309.381	0.1614
309.727	0.1597
310.073	0.1595
310.419	0.1589
310.764	0.1579
311.11	0.1576
311.455	0.1566
311.801	0.1562
312.146	0.1556
312.491	0.1554
312.837	0.1547
313.182	0.1549
313.527	0.1545
313.872	0.1539
314.216	0.1541
314.561	0.1533
314.906	0.1537
315.251	0.1534
315.595	0.1532
315.94	0.1536
316.284	0.1538
316.628	0.1537
316.972	0.1536
317.317	0.1535
317.661	0.1545
318.005	0.1548
318.348	0.1551
318.692	0.1555
319.036	0.1553
319.38	0.1558
319.723	0.157
320.067	0.1567
320.41	0.1578
320.754	0.1581
321.097	0.1587
321.44	0.1598
321.783	0.1601
322.126	0.161
322.469	0.1627
322.812	0.1627
323.155	0.1639
323.498	0.1644
323.84	0.1657
324.183	0.1667
324.525	0.1676
324.868	0.1687
325.21	0.1699
325.552	0.1704
325.894	0.1704
326.236	0.1729
326.578	0.1737
326.92	0.1749
327.262	0.1752
327.604	0.1766
327.946	0.1777
328.287	0.1792
328.629	0.1798
328.97	0.181
329.312	0.1823
329.653	0.1828
329.994	0.1853
330.335	0.1862
330.676	0.1872
331.017	0.1879
331.358	0.1898
331.699	0.1912
332.04	0.192
332.38	0.1929
332.721	0.1956
333.061	0.1952
333.402	0.1969
333.742	0.1983
334.083	0.1996
334.423	0.2004
334.763	0.201
335.103	0.2025
335.443	0.2031
335.783	0.2045
336.123	0.2046
336.462	0.2063
336.802	0.2074
337.141	0.208
337.481	0.2091
337.82	0.2098
338.16	0.2104
338.499	0.2118
338.838	0.2124
339.177	0.2142
339.516	0.2145
339.855	0.2162
340.194	0.2164
340.533	0.2176
340.872	0.2183
341.21	0.2194
341.549	0.2198
341.887	0.2204
342.226	0.2209
342.564	0.2206
342.902	0.2214
343.24	0.2213
343.578	0.2219
343.916	0.2227
344.254	0.2234
344.592	0.2223
344.93	0.2233
345.268	0.2232
345.605	0.223
345.943	0.2237
346.28	0.2235
346.618	0.2234
346.955	0.2239
347.292	0.2239
347.629	0.2245
347.966	0.2244
348.303	0.224
348.64	0.2244
348.977	0.2242
349.314	0.2244
349.65	0.2241
349.987	0.2247
350.324	0.2235
350.66	0.223
350.996	0.2236
351.333	0.2221
351.669	0.2212
352.005	0.2214
352.341	0.2209
352.677	0.2197
353.013	0.2185
353.349	0.218
353.685	0.2165
354.02	0.2159
354.356	0.2154
354.691	0.2139
355.027	0.2138
355.362	0.2122
355.697	0.2114
356.033	0.21
356.368	0.2094
356.703	0.2083
357.038	0.2079
357.373	0.2076
357.707	0.2068
358.042	0.2054
358.377	0.2048
358.711	0.2037
359.046	0.2024
359.38	0.2011
359.715	0.2007
360.049	0.1997
360.383	0.1985
360.717	0.197
361.051	0.1958
361.385	0.1947
361.719	0.1928
362.053	0.1919
362.387	0.1896
362.72	0.1876
363.054	0.1859
363.387	0.1849
363.721	0.1834
364.054	0.1808
364.387	0.1797
364.721	0.178
365.054	0.1762
365.387	0.1747
365.72	0.173
366.053	0.1722
366.385	0.1704
366.718	0.1692
367.051	0.168
367.383	0.1658
367.716	0.1648
368.048	0.1644
368.381	0.1626
368.713	0.1608
369.045	0.1604
369.377	0.1587
369.709	0.1576
370.041	0.1561
370.373	0.1555
370.705	0.1532
371.037	0.1517
371.368	0.1495
371.7	0.1489
372.031	0.147
372.363	0.1458
372.694	0.144
373.025	0.1419
373.356	0.1403
373.688	0.1384
374.019	0.1359
374.35	0.1345
374.68	0.1328
375.011	0.131
375.342	0.1288
375.673	0.1269
376.003	0.1257
376.334	0.1236
376.664	0.1223
376.995	0.121
377.325	0.1194
377.655	0.1184
377.985	0.1173
378.315	0.1158
378.645	0.1141
378.975	0.113
379.305	0.1117
379.635	0.1111
379.964	0.1094
380.294	0.1082
380.623	0.1068
380.953	0.1055
381.282	0.1044
381.611	0.1033
381.941	0.1021
382.27	0.101
382.599	0.0988
382.928	0.0979
383.257	0.0969
383.585	0.0957
383.914	0.0944
384.243	0.093
384.571	0.091
384.9	0.0897
385.228	0.088
385.557	0.0863
385.885	0.0854
386.213	0.0835
386.541	0.0823
386.869	0.0813
387.197	0.0793
387.525	0.0776
387.853	0.0765
388.181	0.0752
388.508	0.075
388.836	0.0733
389.164	0.072
389.491	0.0715
389.818	0.0696
390.146	0.0687
390.473	0.0672
390.8	0.0668
391.127	0.0656
391.454	0.065
391.781	0.0642
392.108	0.0632
392.435	0.0618
392.761	0.0609
393.088	0.0603
393.415	0.0595
393.741	0.0591
394.067	0.0587
394.394	0.0578
394.72	0.057
395.046	0.0558
395.372	0.0551
395.698	0.0541
396.024	0.0537
396.35	0.053
396.676	0.0526
397.001	0.0518
397.327	0.0502
397.653	0.0492
397.978	0.0486
398.303	0.0475
398.629	0.0471
398.954	0.0469
399.279	0.0465
399.604	0.0461
399.929	0.045
400.254	0.0445
400.579	0.0443
400.904	0.043
401.229	0.0426
401.553	0.0415
401.878	0.0415
402.202	0.041
402.527	0.041
402.851	0.0411
403.175	0.0398
403.5	0.04
403.824	0.0401
404.148	0.0392
404.472	0.0389
404.796	0.0386
405.119	0.038
405.443	0.0379
405.767	0.0376
406.09	0.0372
406.414	0.0377
406.737	0.0374
407.061	0.0374
407.384	0.0371
407.707	0.0363
408.03	0.0374
408.353	0.0367
408.676	0.0366
408.999	0.0361
409.322	0.0363
409.645	0.0365
409.968	0.0358
410.29	0.0359
410.613	0.0351
410.935	0.0357
411.258	0.0362
411.58	0.0352
411.902	0.0357
412.224	0.0359
412.546	0.0351
412.868	0.0345
413.19	0.0355
413.512	0.0346
413.834	0.0354
414.156	0.0355
414.477	0.0349
414.799	0.035
415.121	0.0353
415.442	0.0359
415.763	0.0358
416.085	0.0358
416.406	0.036
416.727	0.0354
417.048	0.0354
417.369	0.0356
417.69	0.0356
418.011	0.0356
418.331	0.036
418.652	0.0356
418.973	0.036
419.293	0.0357
419.614	0.0356
419.934	0.0357
420.254	0.0359
420.574	0.0357
420.895	0.0363
421.215	0.0355
421.535	0.035
421.855	0.0356
422.174	0.0361
422.494	0.0361
422.814	0.0366
423.134	0.0361
423.453	0.0366
423.773	0.0364
424.092	0.0362
424.411	0.0356
424.731	0.0368
425.05	0.0365
425.369	0.0368
425.688	0.0366
426.007	0.0371
426.326	0.0373
426.644	0.0381
426.963	0.0374
427.282	0.0374
427.6	0.0377
427.919	0.0371
428.237	0.0375
428.556	0.0382
428.874	0.0374
429.192	0.0371
429.51	0.037
429.828	0.037
430.146	0.0375
430.464	0.0379
430.782	0.0375
431.1	0.0377
431.418	0.0373
431.735	0.0374
432.053	0.0378
432.37	0.0373
432.688	0.0378
433.005	0.0376
433.322	0.0379
433.639	0.0381
433.957	0.0383
434.274	0.0386
434.591	0.0381
434.907	0.0387
435.224	0.0384
435.541	0.0387
435.858	0.0393
436.174	0.0391
436.491	0.0383
436.807	0.0382
437.124	0.0378
437.44	0.0376
437.756	0.0382
438.072	0.0374
438.388	0.0388
438.704	0.0384
439.02	0.0386
439.336	0.0381
439.652	0.0382
439.968	0.0382
440.283	0.0381
440.599	0.0382
440.914	0.0383
441.23	0.0378
441.545	0.0378
441.86	0.0382
442.175	0.0384
442.491	0.0376
442.806	0.0379
443.121	0.0382
443.435	0.0373
443.75	0.0382
444.065	0.0376
444.38	0.0379
444.694	0.038
445.009	0.0378
445.323	0.0379
445.638	0.0378
445.952	0.0379
446.266	0.0374
446.58	0.0384
446.894	0.0377
447.208	0.038
447.522	0.0382
447.836	0.0365
448.15	0.0369
448.464	0.0369
448.777	0.0366
449.091	0.0362
449.404	0.0367
449.718	0.0378
450.031	0.0366
450.345	0.0363
450.658	0.0368
450.971	0.0367
451.284	0.0359
451.597	0.0366
451.91	0.0373
452.223	0.0363
452.535	0.0367
452.848	0.0362
453.161	0.0359
453.473	0.0365
453.786	0.0367
454.098	0.0355
454.411	0.0359
454.723	0.0355
455.035	0.0353
455.347	0.0366
455.659	0.0358
455.971	0.0357
456.283	0.0359
456.595	0.0349
456.907	0.0354
457.218	0.0352
457.53	0.0351
457.841	0.0339
458.153	0.0341
458.464	0.0347
458.776	0.0333
459.087	0.0334
459.398	0.0337
459.709	0.0341
460.02	0.0336
460.331	0.0335
460.642	0.0329
460.953	0.033
461.263	0.0331
461.574	0.0324
461.885	0.0328
462.195	0.033
462.506	0.0323
462.816	0.033
463.126	0.0316
463.437	0.0324
463.747	0.0316
464.057	0.032
464.367	0.0313
464.677	0.0304
464.987	0.0309
465.296	0.0309
465.606	0.0302
465.916	0.0299
466.225	0.0301
466.535	0.0299
466.844	0.0298
467.154	0.0296
467.463	0.0291
467.772	0.03
468.081	0.0299
468.39	0.0289
468.699	0.0284
469.008	0.0293
469.317	0.0292
469.626	0.0282
469.935	0.0284
470.243	0.0298
470.552	0.0295
470.86	0.0287
471.169	0.0275
471.477	0.0279
471.785	0.0286
472.093	0.0273
472.402	0.0273
472.71	0.027
473.018	0.0271
473.326	0.0263
473.633	0.0268
473.941	0.0268
474.249	0.0261
474.556	0.0259
474.864	0.0252
475.171	0.0245
475.479	0.0254
475.786	0.0259
476.094	0.0249
476.401	0.0255
476.708	0.0245
477.015	0.0252
477.322	0.0244
477.629	0.0248
477.936	0.024
478.242	0.0241
478.549	0.0236
478.856	0.0233
479.162	0.0241
479.469	0.0236
479.775	0.0231
480.081	0.0224
480.388	0.023
480.694	0.0225
481	0.0224
481.306	0.023
481.612	0.0221
481.918	0.021
482.224	0.0219
482.53	0.0213
482.835	0.0214
483.141	0.0204
483.446	0.0206
483.752	0.0209
484.057	0.0194
484.363	0.0199
484.668	0.0193
484.973	0.0184
485.278	0.0189
485.583	0.0188
485.888	0.0182
486.193	0.0184
486.498	0.0187
486.803	0.0193
487.107	0.018
487.412	0.0174
487.717	0.0169
488.021	0.0183
488.325	0.0178
488.63	0.0173
488.934	0.0173
489.238	0.0181
489.542	0.0177
489.846	0.0162
490.15	0.0177
490.454	0.0167
490.758	0.0171
491.062	0.0161
491.366	0.016
491.669	0.0167
491.973	0.0162
492.276	0.0156
492.58	0.014
492.883	0.0155
493.186	0.0157
493.489	0.0148
493.792	0.0151
494.096	0.0156
494.399	0.0154
494.701	0.0149
495.004	0.0147
495.307	0.0137
495.61	0.0138
495.912	0.0134
496.215	0.0126
496.517	0.0135
496.82	0.0131
497.122	0.0136
497.424	0.012
497.727	0.012
498.029	0.0131
498.331	0.0135
498.633	0.0128
498.935	0.013
499.237	0.0123
499.538	0.0121
499.84	0.0121
500.142	0.0132
500.443	0.0121
500.745	0.0113
501.046	0.012
501.348	0.0113
501.649	0.0118
501.95	0.0111
502.251	0.0112
502.552	0.0101
502.853	0.01
503.154	0.0105
503.455	0.0101
503.756	0.0104
504.057	0.0106
504.357	0.0095
504.658	0.0097
504.958	0.0098
505.259	0.0102
505.559	0.0104
505.859	0.0099
506.16	0.0095
506.46	0.0096
506.76	0.0096
507.06	0.0093
507.36	0.0103
507.66	0.0095
507.96	0.0094
508.259	0.0085
508.559	0.0074
508.859	0.0093
509.158	0.0081
509.457	0.0084
509.757	0.0094
510.056	0.0087
510.355	0.008
510.655	0.0071
510.954	0.0073
511.253	0.0081
511.552	0.0077
511.851	0.0069
512.149	0.0065
512.448	0.0072
512.747	0.0082
513.045	0.006
513.344	0.008
513.642	0.0079
513.941	0.007
514.239	0.0076
514.537	0.007
514.836	0.0069
515.134	0.0059
515.432	0.0067
515.73	0.0065
516.028	0.0064
516.326	0.0072
516.623	0.006
516.921	0.0063
517.219	0.0069
517.516	0.0073
517.814	0.0061
518.111	0.0066
518.409	0.0077
518.706	0.0067
519.003	0.0073
519.3	0.0052
519.597	0.0061
519.894	0.0053
520.191	0.0062
520.488	0.0059
520.785	0.0054
521.082	0.0053
521.378	0.0058
521.675	0.0046
521.971	0.0049
522.268	0.0054
522.564	0.006
522.861	0.005
523.157	0.0048
523.453	0.0049
523.749	0.0056
524.045	0.006
524.341	0.0051
524.637	0.0043
524.933	0.0045
525.229	0.0051
525.524	0.0044
525.82	0.0055
526.115	0.0047
526.411	0.0042
526.706	0.0054
527.002	0.0049
527.297	0.0031
527.592	0.0058
527.887	0.006
528.182	0.0048
528.477	0.0051
528.772	0.0046
529.067	0.0046
529.362	0.0048
529.657	0.0047
529.951	0.0051
530.246	0.0037
530.54	0.0033
530.835	0.0039
531.129	0.0032
531.423	0.0046
531.718	0.004
532.012	0.0042
532.306	0.0033
532.6	0.0032
532.894	0.0034
533.188	0.0047
533.482	0.0034
533.775	0.0046
534.069	0.0039
534.363	0.0024
534.656	0.0026
534.95	0.0024
535.243	0.0032
535.536	0.0033
535.83	0.0036
536.123	0.0022
536.416	0.0034
536.709	0.0032
537.002	0.0044
537.295	0.004
537.588	0.0034
537.881	0.0039
538.173	0.0024
538.466	0.0027
538.759	0.0023
539.051	0.0028
539.344	0.0025
539.636	0.0032
539.928	0.0032
540.22	0.0031
540.513	0.003
540.805	0.0037
541.097	0.004
541.389	0.003
541.681	0.003
541.972	0.0035
542.264	0.0015
542.556	0.0026
542.847	0.003
543.139	0.0042
543.431	0.0041
543.722	0.0038
544.013	0.0045
544.305	0.0055
544.596	0.0045
544.887	0.0036
545.178	0.0025
545.469	0.0035
545.76	0.0033
546.051	0.0037
546.342	0.0039
546.632	0.0025
546.923	0.0034
547.214	0.0029
547.504	0.0029
547.795	0.003
548.085	0.003
548.375	0.0028
548.666	0.0032
548.956	0.0017
549.246	0.0032
549.536	0.0033
549.826	0.0036
550.116	0.0035
550.406	0.0032
550.695	0.0036
550.985	0.0037
551.275	0.0041
551.564	0.0029
551.854	0.004
552.143	0.0037
552.433	0.0035
552.722	0.004
553.011	0.0033
553.3	0.0048
553.589	0.0038
553.879	0.0035
554.167	0.0033
554.456	0.0031
554.745	0.0028
555.034	0.0024
555.323	0.0016
555.611	0.0023
555.9	0.0042
556.188	0.0034
556.477	0.0028
556.765	0.0037
557.053	0.0031
557.342	0.0027
557.63	0.004
557.918	0.0036
558.206	0.0031
558.494	0.0039
558.782	0.0032
559.069	0.003
559.357	0.0031
559.645	0.0019
559.932	0.0029
560.22	0.0045
560.507	0.0036
560.795	0.0027
561.082	0.0026
561.37	0.0036
561.657	0.0028
561.944	0.0039
562.231	0.0038
562.518	0.0028
562.805	0.0033
563.092	0.0031
563.379	0.0039
563.665	0.003
563.952	0.004
564.239	0.0041
564.525	0.0036
564.811	0.0051
565.098	0.0043
565.384	0.0038
565.67	0.0035
565.957	0.0042
566.243	0.0041
566.529	0.0043
566.815	0.0046
567.101	0.004
567.387	0.0036
567.672	0.0039
567.958	0.0032
568.244	0.0036
568.529	0.0033
568.815	0.0028
569.1	0.0032
569.386	0.0027
569.671	0.0027
569.956	0.003
570.242	0.0029
570.527	0.0038
570.812	0.0032
571.097	0.0038
571.382	0.0033
571.666	0.0029
571.951	0.0021
572.236	0.003
572.521	0.0022
572.805	0.0032
573.09	0.0032
573.374	0.0029
573.659	0.0026
573.943	0.0032
574.227	0.003
574.511	0.0036
574.795	0.0028
575.079	0.0028
575.363	0.0027
575.647	0.0036
575.931	0.004
576.215	0.0035
576.499	0.0026
576.782	0.0035
577.066	0.0025
577.349	0.0031
577.633	0.0029
577.916	0.0029
578.2	0.0037
578.483	0.0035
578.766	0.0024
579.049	0.0034
579.332	0.0027
579.615	0.0022
579.898	0.0035
580.181	0.0027
580.464	0.0027
580.746	0.0021
581.029	0.0025
581.312	0.0013
581.594	0.0024
581.877	0.0026
582.159	0.0029
582.441	0.0027
582.724	0.0023
583.006	0.0029
583.288	0.0015
583.57	0.0019
583.852	0.0019
584.134	0.0025
584.416	0.0027
584.697	0.0026
584.979	0.0024
585.261	0.0026
585.542	0.0022
585.824	0.002
586.105	0.0035
586.387	0.0023
586.668	0.0026
586.949	0.0022
587.231	0.0019
587.512	0.0027
587.793	0.0025
588.074	0.0029
588.355	0.0027
588.636	0.0033
588.916	0.0029
589.197	0.0038
589.478	0.0037
589.758	0.003
590.039	0.0038
590.319	0.0028
590.6	0.0027
590.88	0.0029
591.16	0.0023
591.441	0.0036
591.721	0.0029
592.001	0.0025
592.281	0.0028
592.561	0.0025
592.841	0.0031
593.12	0.0027
593.4	0.0023
593.68	0.0029
593.959	0.0027
594.239	0.0035
594.518	0.0021
594.798	0.0033
595.077	0.0031
595.356	0.0028
595.636	0.0023
595.915	0.0026
596.194	0.0028
596.473	0.0037
