Data from 03 0.2 mM BQDS 0.4 mM K2Cr2O7 1 M H2SO4 5 min_Absorbance_04-52-42-610.txt Node
Date: Wed Dec 08 04:52:42 EST 2021
User: kwabilab-user
Spectrometer: HDX00518
Trigger mode: 0
Integration Time (sec): 5.000000E-2
Scans to average: 50
Nonlinearity correction enabled: false
Boxcar width: 0
Storing dark spectrum: false
XAxis mode: Wavelengths
Number of Pixels in Spectrum: 2068
>>>>>Begin Spectral Data<<<<<
195.27	-0.1325
195.642	0.0135
196.014	-0.0372
196.386	-0.0935
196.758	-0.0385
197.129	-0.0293
197.501	0.0005
197.872	0.0577
198.244	0.0864
198.615	0.0929
198.986	0.0789
199.357	0.0739
199.728	0.0831
200.099	0.0678
200.47	0.0783
200.841	0.0679
201.212	0.0787
201.582	0.0721
201.953	0.0886
202.323	0.0815
202.694	0.0739
203.064	0.0788
203.434	0.0512
203.804	0.0771
204.174	0.0714
204.544	0.0733
204.914	0.061
205.284	0.0764
205.653	0.0792
206.023	0.0736
206.393	0.0766
206.762	0.0801
207.131	0.0816
207.501	0.0873
207.87	0.0876
208.239	0.0732
208.608	0.0622
208.977	0.0786
209.346	0.088
209.715	0.0798
210.083	0.0985
210.452	0.0905
210.82	0.0966
211.189	0.1103
211.557	0.1074
211.925	0.1068
212.294	0.1141
212.662	0.1228
213.03	0.1251
213.398	0.1038
213.766	0.1386
214.133	0.1549
214.501	0.1511
214.869	0.151
215.236	0.185
215.604	0.1849
215.971	0.1875
216.338	0.2157
216.705	0.2254
217.072	0.2556
217.439	0.2802
217.806	0.3119
218.173	0.3226
218.54	0.3628
218.907	0.3833
219.273	0.4367
219.64	0.4584
220.006	0.5083
220.373	0.5467
220.739	0.5738
221.105	0.6234
221.471	0.6561
221.837	0.6828
222.203	0.7313
222.569	0.7656
222.935	0.7866
223.3	0.8086
223.666	0.8436
224.031	0.8562
224.397	0.8859
224.762	0.9024
225.127	0.9277
225.493	0.9495
225.858	0.9538
226.223	0.9558
226.588	0.9708
226.952	0.977
227.317	0.9868
227.682	0.9769
228.046	0.9709
228.411	0.972
228.775	0.9749
229.14	0.9747
229.504	0.9692
229.868	0.967
230.232	0.959
230.596	0.9507
230.96	0.9484
231.324	0.9369
231.688	0.9264
232.052	0.9217
232.415	0.9116
232.779	0.9048
233.142	0.8957
233.505	0.89
233.869	0.8772
234.232	0.8718
234.595	0.8592
234.958	0.8528
235.321	0.8421
235.684	0.8328
236.047	0.8274
236.409	0.8177
236.772	0.8081
237.134	0.7996
237.497	0.7911
237.859	0.78
238.222	0.7756
238.584	0.7683
238.946	0.7571
239.308	0.7516
239.67	0.7442
240.032	0.7351
240.393	0.7292
240.755	0.7232
241.117	0.7155
241.478	0.7106
241.84	0.704
242.201	0.6972
242.562	0.6943
242.924	0.6849
243.285	0.6771
243.646	0.6767
244.007	0.6714
244.368	0.6673
244.728	0.6619
245.089	0.6575
245.45	0.6533
245.81	0.6503
246.171	0.6449
246.531	0.6402
246.891	0.6384
247.252	0.6341
247.612	0.6338
247.972	0.6292
248.332	0.6264
248.692	0.6214
249.051	0.6204
249.411	0.6191
249.771	0.6153
250.13	0.6132
250.49	0.6144
250.849	0.61
251.208	0.6091
251.568	0.6074
251.927	0.6042
252.286	0.6042
252.645	0.6022
253.004	0.6002
253.363	0.5969
253.721	0.5987
254.08	0.5943
254.439	0.595
254.797	0.5921
255.155	0.5903
255.514	0.5905
255.872	0.5909
256.23	0.5878
256.588	0.5874
256.946	0.584
257.304	0.586
257.662	0.5833
258.02	0.5818
258.377	0.5796
258.735	0.5787
259.093	0.5788
259.45	0.5763
259.807	0.5759
260.165	0.5744
260.522	0.5735
260.879	0.5712
261.236	0.5693
261.593	0.5692
261.95	0.5681
262.306	0.5668
262.663	0.5647
263.02	0.562
263.376	0.5615
263.733	0.5581
264.089	0.5587
264.445	0.5558
264.802	0.5541
265.158	0.552
265.514	0.549
265.87	0.5481
266.226	0.5449
266.581	0.5442
266.937	0.5413
267.293	0.5384
267.648	0.5353
268.004	0.5361
268.359	0.533
268.714	0.5289
269.07	0.5262
269.425	0.5246
269.78	0.5221
270.135	0.5198
270.49	0.5176
270.844	0.5148
271.199	0.5117
271.554	0.5077
271.908	0.5054
272.263	0.5045
272.617	0.5015
272.972	0.4963
273.326	0.495
273.68	0.4912
274.034	0.4863
274.388	0.4848
274.742	0.4802
275.096	0.4773
275.45	0.4736
275.803	0.4701
276.157	0.4653
276.51	0.4627
276.864	0.4605
277.217	0.4567
277.571	0.4527
277.924	0.447
278.277	0.4451
278.63	0.4412
278.983	0.4361
279.336	0.4323
279.688	0.4294
280.041	0.4266
280.394	0.4213
280.746	0.4177
281.099	0.4139
281.451	0.41
281.803	0.406
282.156	0.402
282.508	0.3987
282.86	0.3938
283.212	0.3895
283.564	0.387
283.916	0.3817
284.267	0.3783
284.619	0.3747
284.971	0.3707
285.322	0.3672
285.673	0.363
286.025	0.3599
286.376	0.3551
286.727	0.3518
287.078	0.3466
287.429	0.3451
287.78	0.3394
288.131	0.3344
288.482	0.3312
288.833	0.3277
289.183	0.3244
289.534	0.3199
289.884	0.3151
290.235	0.313
290.585	0.3077
290.935	0.3042
291.285	0.3008
291.635	0.2976
291.985	0.2923
292.335	0.2893
292.685	0.2863
293.035	0.2829
293.384	0.2791
293.734	0.2761
294.083	0.2708
294.433	0.267
294.782	0.2641
295.131	0.2606
295.48	0.2571
295.829	0.2544
296.179	0.2498
296.527	0.2467
296.876	0.2431
297.225	0.2408
297.574	0.237
297.922	0.2344
298.271	0.2309
298.619	0.2268
298.968	0.2247
299.316	0.2213
299.664	0.2184
300.012	0.2162
300.36	0.2122
300.708	0.2099
301.056	0.2078
301.404	0.2058
301.752	0.2031
302.099	0.2009
302.447	0.1981
302.794	0.196
303.142	0.1937
303.489	0.1914
303.836	0.1892
304.183	0.1875
304.531	0.1853
304.878	0.1839
305.224	0.1813
305.571	0.1801
305.918	0.1787
306.265	0.176
306.611	0.1753
306.958	0.174
307.304	0.1722
307.651	0.1713
307.997	0.1702
308.343	0.169
308.689	0.168
309.035	0.1668
309.381	0.1667
309.727	0.165
310.073	0.1647
310.419	0.1637
310.764	0.1628
311.11	0.1622
311.455	0.1618
311.801	0.1607
312.146	0.1611
312.491	0.1598
312.837	0.1597
313.182	0.1598
313.527	0.16
313.872	0.1592
314.216	0.1591
314.561	0.1591
314.906	0.1588
315.251	0.1589
315.595	0.1587
315.94	0.1587
316.284	0.1592
316.628	0.1589
316.972	0.1587
317.317	0.16
317.661	0.1607
318.005	0.1605
318.348	0.1611
318.692	0.1615
319.036	0.1615
319.38	0.1625
319.723	0.163
320.067	0.1632
320.41	0.164
320.754	0.1648
321.097	0.1658
321.44	0.1662
321.783	0.1669
322.126	0.1674
322.469	0.1693
322.812	0.1691
323.155	0.1707
323.498	0.1718
323.84	0.1728
324.183	0.1741
324.525	0.1747
324.868	0.1757
325.21	0.1772
325.552	0.1785
325.894	0.1793
326.236	0.1806
326.578	0.1818
326.92	0.1823
327.262	0.1837
327.604	0.185
327.946	0.1861
328.287	0.1875
328.629	0.1888
328.97	0.1889
329.312	0.1905
329.653	0.1921
329.994	0.1939
330.335	0.1949
330.676	0.1967
331.017	0.197
331.358	0.1988
331.699	0.2003
332.04	0.2023
332.38	0.2027
332.721	0.2047
333.061	0.205
333.402	0.2071
333.742	0.2083
334.083	0.2098
334.423	0.2108
334.763	0.2107
335.103	0.2136
335.443	0.2137
335.783	0.2145
336.123	0.2148
336.462	0.2164
336.802	0.2172
337.141	0.2184
337.481	0.2198
337.82	0.2204
338.16	0.2214
338.499	0.2228
338.838	0.2238
339.177	0.2253
339.516	0.2259
339.855	0.2271
340.194	0.2284
340.533	0.2288
340.872	0.2295
341.21	0.2315
341.549	0.2315
341.887	0.2327
342.226	0.2327
342.564	0.2325
342.902	0.2334
343.24	0.2331
343.578	0.2335
343.916	0.2339
344.254	0.2343
344.592	0.2353
344.93	0.2356
345.268	0.2354
345.605	0.2353
345.943	0.2356
346.28	0.2354
346.618	0.2361
346.955	0.2357
347.292	0.2359
347.629	0.2369
347.966	0.2369
348.303	0.2372
348.64	0.2369
348.977	0.2363
349.314	0.2364
349.65	0.237
349.987	0.2371
350.324	0.2361
350.66	0.2357
350.996	0.2356
351.333	0.2347
351.669	0.2338
352.005	0.2335
352.341	0.2329
352.677	0.2327
353.013	0.2308
353.349	0.2301
353.685	0.2295
354.02	0.2286
354.356	0.2277
354.691	0.2259
355.027	0.2256
355.362	0.224
355.697	0.2232
356.033	0.2223
356.368	0.2218
356.703	0.2206
357.038	0.22
357.373	0.2191
357.707	0.2191
358.042	0.2174
358.377	0.2162
358.711	0.2154
359.046	0.2143
359.38	0.2131
359.715	0.2126
360.049	0.2108
360.383	0.2104
360.717	0.2088
361.051	0.2071
361.385	0.2056
361.719	0.2043
362.053	0.2029
362.387	0.2004
362.72	0.1993
363.054	0.197
363.387	0.1957
363.721	0.194
364.054	0.1919
364.387	0.1902
364.721	0.1889
365.054	0.1872
365.387	0.1857
365.72	0.1839
366.053	0.1829
366.385	0.1805
366.718	0.1789
367.051	0.1778
367.383	0.1764
367.716	0.175
368.048	0.1747
368.381	0.1728
368.713	0.1719
369.045	0.17
369.377	0.1691
369.709	0.167
370.041	0.1662
370.373	0.1651
370.705	0.1632
371.037	0.1614
371.368	0.1599
371.7	0.1588
372.031	0.1571
372.363	0.1552
372.694	0.1539
373.025	0.1513
373.356	0.1493
373.688	0.148
374.019	0.1459
374.35	0.1439
374.68	0.142
375.011	0.1399
375.342	0.1378
375.673	0.1361
376.003	0.1345
376.334	0.1331
376.664	0.1313
376.995	0.1293
377.325	0.1279
377.655	0.1269
377.985	0.1253
378.315	0.124
378.645	0.1226
378.975	0.1209
379.305	0.1197
379.635	0.12
379.964	0.1175
380.294	0.1159
380.623	0.1153
380.953	0.1138
381.282	0.1128
381.611	0.1111
381.941	0.1098
382.27	0.1085
382.599	0.107
382.928	0.1058
383.257	0.1044
383.585	0.1037
383.914	0.1013
384.243	0.1008
384.571	0.0988
384.9	0.0963
385.228	0.0951
385.557	0.0938
385.885	0.093
386.213	0.0909
386.541	0.0893
386.869	0.0876
387.197	0.0862
387.525	0.0841
387.853	0.0835
388.181	0.0822
388.508	0.0815
388.836	0.0794
389.164	0.0787
389.491	0.0776
389.818	0.0762
390.146	0.0749
390.473	0.0731
390.8	0.0727
391.127	0.0713
391.454	0.0707
391.781	0.0699
392.108	0.0685
392.435	0.0673
392.761	0.0669
393.088	0.0659
393.415	0.0653
393.741	0.0651
394.067	0.064
394.394	0.0634
394.72	0.0626
395.046	0.0615
395.372	0.0606
395.698	0.0589
396.024	0.0586
396.35	0.0581
396.676	0.0575
397.001	0.0569
397.327	0.056
397.653	0.0546
397.978	0.0535
398.303	0.0528
398.629	0.0517
398.954	0.0518
399.279	0.051
399.604	0.0504
399.929	0.0502
400.254	0.0487
400.579	0.0485
400.904	0.0477
401.229	0.047
401.553	0.0461
401.878	0.046
402.202	0.0456
402.527	0.045
402.851	0.0451
403.175	0.0441
403.5	0.0438
403.824	0.0441
404.148	0.043
404.472	0.043
404.796	0.0421
405.119	0.042
405.443	0.0418
405.767	0.0417
406.09	0.0411
406.414	0.0419
406.737	0.041
407.061	0.0405
407.384	0.0409
407.707	0.0402
408.03	0.0406
408.353	0.0406
408.676	0.0403
408.999	0.04
409.322	0.04
409.645	0.0403
409.968	0.0399
410.29	0.0395
410.613	0.0394
410.935	0.0394
411.258	0.0395
411.58	0.0396
411.902	0.0391
412.224	0.0389
412.546	0.0394
412.868	0.039
413.19	0.0394
413.512	0.0392
413.834	0.0394
414.156	0.04
414.477	0.0392
414.799	0.0389
415.121	0.0395
415.442	0.0399
415.763	0.0395
416.085	0.0393
416.406	0.0393
416.727	0.0397
417.048	0.0395
417.369	0.0391
417.69	0.0393
418.011	0.0396
418.331	0.0395
418.652	0.0393
418.973	0.0394
419.293	0.0397
419.614	0.0394
419.934	0.0397
420.254	0.0398
420.574	0.0392
420.895	0.0392
421.215	0.0391
421.535	0.039
421.855	0.0392
422.174	0.039
422.494	0.0398
422.814	0.0404
423.134	0.04
423.453	0.0401
423.773	0.0401
424.092	0.0396
424.411	0.0397
424.731	0.0405
425.05	0.0398
425.369	0.04
425.688	0.0398
426.007	0.0405
426.326	0.0409
426.644	0.0416
426.963	0.0409
427.282	0.0418
427.6	0.041
427.919	0.041
428.237	0.041
428.556	0.0412
428.874	0.0409
429.192	0.0405
429.51	0.0405
429.828	0.0412
430.146	0.0414
430.464	0.0415
430.782	0.0411
431.1	0.041
431.418	0.041
431.735	0.0411
432.053	0.0418
432.37	0.0411
432.688	0.0411
433.005	0.041
433.322	0.0416
433.639	0.0412
433.957	0.0411
434.274	0.0415
434.591	0.0415
434.907	0.0422
435.224	0.0414
435.541	0.0419
435.858	0.0427
436.174	0.0418
436.491	0.0417
436.807	0.0415
437.124	0.041
437.44	0.0413
437.756	0.0414
438.072	0.0409
438.388	0.0423
438.704	0.0412
439.02	0.0421
439.336	0.0414
439.652	0.0416
439.968	0.0419
440.283	0.0414
440.599	0.0419
440.914	0.0419
441.23	0.0411
441.545	0.0413
441.86	0.0408
442.175	0.0414
442.491	0.0405
442.806	0.0409
443.121	0.0413
443.435	0.0408
443.75	0.0412
444.065	0.041
444.38	0.0418
444.694	0.0406
445.009	0.0408
445.323	0.0412
445.638	0.0408
445.952	0.0409
446.266	0.041
446.58	0.0407
446.894	0.0409
447.208	0.0411
447.522	0.0413
447.836	0.0396
448.15	0.0397
448.464	0.0399
448.777	0.0401
449.091	0.0396
449.404	0.0404
449.718	0.0408
450.031	0.0398
450.345	0.0398
450.658	0.0395
450.971	0.0397
451.284	0.0392
451.597	0.0394
451.91	0.0402
452.223	0.0387
452.535	0.0392
452.848	0.0391
453.161	0.039
453.473	0.0395
453.786	0.0391
454.098	0.0388
454.411	0.039
454.723	0.0382
455.035	0.0389
455.347	0.0389
455.659	0.0395
455.971	0.0386
456.283	0.0391
456.595	0.038
456.907	0.0382
457.218	0.0385
457.53	0.0379
457.841	0.0372
458.153	0.0369
458.464	0.0373
458.776	0.0362
459.087	0.0364
459.398	0.0371
459.709	0.0365
460.02	0.0369
460.331	0.0361
460.642	0.0357
460.953	0.0362
461.263	0.0358
461.574	0.0361
461.885	0.0357
462.195	0.0359
462.506	0.0353
462.816	0.0351
463.126	0.0342
463.437	0.0349
463.747	0.0339
464.057	0.0347
464.367	0.0341
464.677	0.0334
464.987	0.0338
465.296	0.0335
465.606	0.0329
465.916	0.0325
466.225	0.0329
466.535	0.0327
466.844	0.0329
467.154	0.0321
467.463	0.0325
467.772	0.0324
468.081	0.0319
468.39	0.0313
468.699	0.0319
469.008	0.0313
469.317	0.0315
469.626	0.0314
469.935	0.0308
470.243	0.031
470.552	0.0311
470.86	0.0305
471.169	0.0301
471.477	0.0312
471.785	0.0298
472.093	0.0297
472.402	0.0292
472.71	0.0294
473.018	0.0289
473.326	0.0282
473.633	0.0289
473.941	0.0284
474.249	0.0283
474.556	0.0278
474.864	0.0285
475.171	0.0272
475.479	0.0272
475.786	0.0283
476.094	0.0277
476.401	0.0276
476.708	0.0272
477.015	0.0276
477.322	0.0263
477.629	0.0266
477.936	0.0262
478.242	0.0257
478.549	0.0258
478.856	0.0257
479.162	0.0247
479.469	0.025
479.775	0.0258
480.081	0.0248
480.388	0.0246
480.694	0.0238
481	0.0239
481.306	0.0244
481.612	0.0245
481.918	0.0238
482.224	0.0242
482.53	0.0231
482.835	0.0226
483.141	0.0222
483.446	0.0216
483.752	0.0218
484.057	0.0218
484.363	0.0223
484.668	0.0214
484.973	0.0216
485.278	0.0209
485.583	0.0209
485.888	0.0199
486.193	0.0195
486.498	0.0203
486.803	0.0205
487.107	0.0205
487.412	0.0191
487.717	0.0198
488.021	0.0197
488.325	0.019
488.63	0.0185
488.934	0.0187
489.238	0.0193
489.542	0.0187
489.846	0.0183
490.15	0.0187
490.454	0.0183
490.758	0.019
491.062	0.0176
491.366	0.0177
491.669	0.0181
491.973	0.0179
492.276	0.0165
492.58	0.0168
492.883	0.0174
493.186	0.0169
493.489	0.017
493.792	0.0169
494.096	0.0165
494.399	0.0162
494.701	0.0163
495.004	0.0159
495.307	0.0155
495.61	0.0157
495.912	0.0148
496.215	0.0149
496.517	0.0148
496.82	0.0149
497.122	0.0145
497.424	0.0139
497.727	0.0136
498.029	0.0145
498.331	0.0146
498.633	0.0146
498.935	0.0139
499.237	0.0137
499.538	0.0135
499.84	0.0135
500.142	0.0138
500.443	0.0127
500.745	0.0131
501.046	0.0134
501.348	0.0123
501.649	0.0133
501.95	0.0125
502.251	0.0119
502.552	0.0121
502.853	0.0114
503.154	0.0122
503.455	0.0109
503.756	0.0114
504.057	0.0111
504.357	0.0106
504.658	0.0106
504.958	0.0104
505.259	0.0122
505.559	0.0113
505.859	0.0117
506.16	0.0104
506.46	0.0115
506.76	0.0111
507.06	0.0108
507.36	0.0113
507.66	0.0111
507.96	0.0104
508.259	0.0088
508.559	0.0091
508.859	0.0099
509.158	0.0096
509.457	0.009
509.757	0.011
510.056	0.0085
510.355	0.0084
510.655	0.0081
510.954	0.0079
511.253	0.0088
511.552	0.0099
511.851	0.008
512.149	0.0079
512.448	0.0086
512.747	0.0085
513.045	0.0069
513.344	0.0082
513.642	0.0084
513.941	0.0083
514.239	0.0079
514.537	0.0075
514.836	0.0081
515.134	0.0074
515.432	0.0071
515.73	0.0075
516.028	0.0066
516.326	0.0076
516.623	0.007
516.921	0.007
517.219	0.0078
517.516	0.0076
517.814	0.0065
518.111	0.007
518.409	0.0081
518.706	0.0075
519.003	0.0076
519.3	0.0058
519.597	0.0065
519.894	0.0064
520.191	0.0074
520.488	0.007
520.785	0.0057
521.082	0.0072
521.378	0.0067
521.675	0.0048
521.971	0.0054
522.268	0.0058
522.564	0.0062
522.861	0.0056
523.157	0.0048
523.453	0.0057
523.749	0.0062
524.045	0.0068
524.341	0.0057
524.637	0.0052
524.933	0.0053
525.229	0.0056
525.524	0.0043
525.82	0.0066
526.115	0.0055
526.411	0.0048
526.706	0.0053
527.002	0.0047
527.297	0.0034
527.592	0.0068
527.887	0.0062
528.182	0.0052
528.477	0.0057
528.772	0.0043
529.067	0.0053
529.362	0.0049
529.657	0.0052
529.951	0.0038
530.246	0.0043
530.54	0.003
530.835	0.0037
531.129	0.0029
531.423	0.0047
531.718	0.0029
532.012	0.0042
532.306	0.0034
532.6	0.0041
532.894	0.0032
533.188	0.0041
533.482	0.0038
533.775	0.0037
534.069	0.0028
534.363	0.0024
534.656	0.0033
534.95	0.0019
535.243	0.0029
535.536	0.0037
535.83	0.0037
536.123	0.0032
536.416	0.0029
536.709	0.0046
537.002	0.0051
537.295	0.0034
537.588	0.0041
537.881	0.0035
538.173	0.0033
538.466	0.0033
538.759	0.0027
539.051	0.002
539.344	0.002
539.636	0.0028
539.928	0.0035
540.22	0.0041
540.513	0.0039
540.805	0.0037
541.097	0.0034
541.389	0.004
541.681	0.0033
541.972	0.0034
542.264	0.0035
542.556	0.0025
542.847	0.0046
543.139	0.0033
543.431	0.0044
543.722	0.0037
544.013	0.0037
544.305	0.005
544.596	0.0045
544.887	0.0036
545.178	0.0032
545.469	0.0031
545.76	0.0034
546.051	0.0043
546.342	0.0048
546.632	0.0029
546.923	0.0039
547.214	0.003
547.504	0.0023
547.795	0.0042
548.085	0.004
548.375	0.0023
548.666	0.0035
548.956	0.003
549.246	0.0038
549.536	0.0021
549.826	0.0032
550.116	0.0038
550.406	0.0024
550.695	0.0046
550.985	0.0039
551.275	0.0034
551.564	0.0033
551.854	0.0042
552.143	0.0031
552.433	0.0037
552.722	0.0032
553.011	0.002
553.3	0.0047
553.589	0.003
553.879	0.0019
554.167	0.0032
554.456	0.0031
554.745	0.0023
555.034	0.0021
555.323	0.0023
555.611	0.002
555.9	0.0031
556.188	0.0027
556.477	0.0027
556.765	0.0017
557.053	0.0018
557.342	0.0023
557.63	0.0033
557.918	0.0021
558.206	0.002
558.494	0.0033
558.782	0.0028
559.069	0.003
559.357	0.003
559.645	0.0021
559.932	0.0023
560.22	0.0048
560.507	0.0027
560.795	0.0027
561.082	0.0024
561.37	0.0032
561.657	0.0019
561.944	0.0035
562.231	0.003
562.518	0.0024
562.805	0.003
563.092	0.0032
563.379	0.0035
563.665	0.003
563.952	0.0031
564.239	0.0038
564.525	0.0036
564.811	0.0039
565.098	0.0039
565.384	0.0038
565.67	0.0026
565.957	0.0032
566.243	0.0029
566.529	0.0036
566.815	0.0045
567.101	0.0024
567.387	0.002
567.672	0.0031
567.958	0.003
568.244	0.0038
568.529	0.004
568.815	0.0024
569.1	0.0037
569.386	0.0027
569.671	0.003
569.956	0.0027
570.242	0.002
570.527	0.0029
570.812	0.0031
571.097	0.0036
571.382	0.0026
571.666	0.0021
571.951	0.0026
572.236	0.0026
572.521	0.0021
572.805	0.0027
573.09	0.0028
573.374	0.0031
573.659	0.0026
573.943	0.0028
574.227	0.0022
574.511	0.0032
574.795	0.0026
575.079	0.0026
575.363	0.0031
575.647	0.0027
575.931	0.003
576.215	0.0035
576.499	0.003
576.782	0.0022
577.066	0.0029
577.349	0.0028
577.633	0.004
577.916	0.0033
578.2	0.0039
578.483	0.0031
578.766	0.0027
579.049	0.0041
579.332	0.0032
579.615	0.0037
579.898	0.003
580.181	0.0037
580.464	0.0031
580.746	0.0029
581.029	0.0033
581.312	0.0026
581.594	0.0025
581.877	0.0025
582.159	0.0037
582.441	0.0028
582.724	0.0033
583.006	0.0024
583.288	0.0025
583.57	0.002
583.852	0.0021
584.134	0.0024
584.416	0.0026
584.697	0.0028
584.979	0.0033
585.261	0.0033
585.542	0.0025
585.824	0.0028
586.105	0.0028
586.387	0.002
586.668	0.0025
586.949	0.0032
587.231	0.0026
587.512	0.003
587.793	0.0028
588.074	0.0032
588.355	0.0036
588.636	0.0034
588.916	0.0031
589.197	0.0039
589.478	0.0034
589.758	0.0026
590.039	0.0024
590.319	0.0032
590.6	0.0028
590.88	0.0032
591.16	0.003
591.441	0.0031
591.721	0.0034
592.001	0.0026
592.281	0.0029
592.561	0.004
592.841	0.0033
593.12	0.0027
593.4	0.0024
593.68	0.0027
593.959	0.0033
594.239	0.004
594.518	0.0029
594.798	0.0036
595.077	0.004
595.356	0.0028
595.636	0.003
595.915	0.0031
596.194	0.0028
596.473	0.0032
596.752	0.0026
