Data from 03 0.2 mM BQDS 0.4 mM K2Cr2O7 1 M H2SO4 5 min_Absorbance_03-27-42-349.txt Node
Date: Wed Dec 08 03:27:42 EST 2021
User: kwabilab-user
Spectrometer: HDX00518
Trigger mode: 0
Integration Time (sec): 5.000000E-2
Scans to average: 50
Nonlinearity correction enabled: false
Boxcar width: 0
Storing dark spectrum: false
XAxis mode: Wavelengths
Number of Pixels in Spectrum: 2068
>>>>>Begin Spectral Data<<<<<
195.27	-0.0749
195.642	-0.0072
196.014	-0.099
196.386	-0.0448
196.758	-0.0038
197.129	-0.0088
197.501	0.0229
197.872	0.0653
198.244	0.0905
198.615	0.0909
198.986	0.0853
199.357	0.0886
199.728	0.0953
200.099	0.0873
200.47	0.0809
200.841	0.09
201.212	0.0848
201.582	0.0859
201.953	0.099
202.323	0.0954
202.694	0.0723
203.064	0.0952
203.434	0.0734
203.804	0.1074
204.174	0.0905
204.544	0.0818
204.914	0.0847
205.284	0.0954
205.653	0.0908
206.023	0.0824
206.393	0.0886
206.762	0.0974
207.131	0.0887
207.501	0.1038
207.87	0.1103
208.239	0.1009
208.608	0.0887
208.977	0.1138
209.346	0.1024
209.715	0.1076
210.083	0.1341
210.452	0.1018
210.82	0.1226
211.189	0.1298
211.557	0.1222
211.925	0.1261
212.294	0.1258
212.662	0.1355
213.03	0.1434
213.398	0.1356
213.766	0.1589
214.133	0.1668
214.501	0.1758
214.869	0.1969
215.236	0.2045
215.604	0.2062
215.971	0.2208
216.338	0.2427
216.705	0.2702
217.072	0.2852
217.439	0.2844
217.806	0.3324
218.173	0.3588
218.54	0.3768
218.907	0.4095
219.273	0.4546
219.64	0.4841
220.006	0.5238
220.373	0.5565
220.739	0.6082
221.105	0.627
221.471	0.6552
221.837	0.7183
222.203	0.7463
222.569	0.7784
222.935	0.7989
223.3	0.8253
223.666	0.8598
224.031	0.8867
224.397	0.9028
224.762	0.9152
225.127	0.9413
225.493	0.9561
225.858	0.9667
226.223	0.9708
226.588	0.9752
226.952	0.985
227.317	0.9942
227.682	0.986
228.046	0.9862
228.411	0.9873
228.775	0.9857
229.14	0.9846
229.504	0.9742
229.868	0.9772
230.232	0.9671
230.596	0.9597
230.96	0.9519
231.324	0.9444
231.688	0.9315
232.052	0.9271
232.415	0.9157
232.779	0.9108
233.142	0.9051
233.505	0.8961
233.869	0.8822
234.232	0.8713
234.595	0.8652
234.958	0.8569
235.321	0.8477
235.684	0.8354
236.047	0.8283
236.409	0.8177
236.772	0.8118
237.134	0.8037
237.497	0.7931
237.859	0.7845
238.222	0.7786
238.584	0.7713
238.946	0.7611
239.308	0.7533
239.67	0.7446
240.032	0.7403
240.393	0.7341
240.755	0.7264
241.117	0.72
241.478	0.7134
241.84	0.7081
242.201	0.6988
242.562	0.6955
242.924	0.6882
243.285	0.6844
243.646	0.6775
244.007	0.6756
244.368	0.6699
244.728	0.6676
245.089	0.664
245.45	0.6575
245.81	0.6548
246.171	0.6492
246.531	0.6477
246.891	0.6435
247.252	0.6369
247.612	0.6351
247.972	0.6348
248.332	0.629
248.692	0.6289
249.051	0.6264
249.411	0.6245
249.771	0.6195
250.13	0.6165
250.49	0.6171
250.849	0.6149
251.208	0.6125
251.568	0.613
251.927	0.6088
252.286	0.6088
252.645	0.6094
253.004	0.6072
253.363	0.6037
253.721	0.604
254.08	0.6026
254.439	0.5994
254.797	0.5994
255.155	0.5987
255.514	0.596
255.872	0.5957
256.23	0.5934
256.588	0.5923
256.946	0.5932
257.304	0.5923
257.662	0.5885
258.02	0.5881
258.377	0.5872
258.735	0.5851
259.093	0.5855
259.45	0.5852
259.807	0.5836
260.165	0.5812
260.522	0.5807
260.879	0.5787
261.236	0.5784
261.593	0.5769
261.95	0.5749
262.306	0.5735
262.663	0.5715
263.02	0.5712
263.376	0.5686
263.733	0.5668
264.089	0.565
264.445	0.5612
264.802	0.5614
265.158	0.56
265.514	0.5578
265.87	0.5555
266.226	0.5534
266.581	0.5511
266.937	0.5475
267.293	0.5475
267.648	0.5453
268.004	0.543
268.359	0.5394
268.714	0.5365
269.07	0.5346
269.425	0.531
269.78	0.53
270.135	0.5252
270.49	0.5244
270.844	0.5214
271.199	0.5189
271.554	0.5172
271.908	0.5127
272.263	0.5109
272.617	0.5072
272.972	0.5043
273.326	0.5026
273.68	0.4976
274.034	0.493
274.388	0.4903
274.742	0.4862
275.096	0.483
275.45	0.4795
275.803	0.4787
276.157	0.4723
276.51	0.4703
276.864	0.467
277.217	0.4634
277.571	0.4574
277.924	0.454
278.277	0.4509
278.63	0.446
278.983	0.4427
279.336	0.44
279.688	0.4349
280.041	0.4315
280.394	0.4262
280.746	0.4239
281.099	0.4184
281.451	0.4146
281.803	0.4092
282.156	0.406
282.508	0.4026
282.86	0.399
283.212	0.395
283.564	0.3901
283.916	0.3869
284.267	0.3825
284.619	0.3791
284.971	0.3745
285.322	0.3703
285.673	0.3678
286.025	0.3631
286.376	0.3582
286.727	0.3544
287.078	0.3501
287.429	0.3476
287.78	0.342
288.131	0.3392
288.482	0.3346
288.833	0.3319
289.183	0.3268
289.534	0.3228
289.884	0.3191
290.235	0.3153
290.585	0.3114
290.935	0.3076
291.285	0.3037
291.635	0.3002
291.985	0.296
292.335	0.2923
292.685	0.2886
293.035	0.2851
293.384	0.2811
293.734	0.278
294.083	0.2735
294.433	0.27
294.782	0.2662
295.131	0.2629
295.48	0.2593
295.829	0.256
296.179	0.2514
296.527	0.2489
296.876	0.2462
297.225	0.243
297.574	0.239
297.922	0.2361
298.271	0.2328
298.619	0.2291
298.968	0.2271
299.316	0.2232
299.664	0.2206
300.012	0.2179
300.36	0.2143
300.708	0.2118
301.056	0.2093
301.404	0.2069
301.752	0.2043
302.099	0.2023
302.447	0.1998
302.794	0.1971
303.142	0.1949
303.489	0.1925
303.836	0.1904
304.183	0.1891
304.531	0.1867
304.878	0.1849
305.224	0.1828
305.571	0.1817
305.918	0.1794
306.265	0.1774
306.611	0.1769
306.958	0.1751
307.304	0.1741
307.651	0.1722
307.997	0.1714
308.343	0.1701
308.689	0.1694
309.035	0.1683
309.381	0.1674
309.727	0.1661
310.073	0.1656
310.419	0.1646
310.764	0.164
311.11	0.1636
311.455	0.1629
311.801	0.1615
312.146	0.1616
312.491	0.1616
312.837	0.161
313.182	0.1612
313.527	0.1603
313.872	0.1599
314.216	0.1606
314.561	0.1603
314.906	0.1602
315.251	0.1598
315.595	0.1604
315.94	0.1599
316.284	0.1603
316.628	0.1599
316.972	0.1604
317.317	0.1612
317.661	0.1612
318.005	0.1617
318.348	0.162
318.692	0.1625
319.036	0.163
319.38	0.1633
319.723	0.1641
320.067	0.1648
320.41	0.1655
320.754	0.1664
321.097	0.1667
321.44	0.168
321.783	0.1683
322.126	0.1689
322.469	0.1705
322.812	0.1717
323.155	0.1721
323.498	0.1733
323.84	0.1744
324.183	0.1756
324.525	0.1767
324.868	0.1772
325.21	0.1789
325.552	0.1803
325.894	0.1806
326.236	0.1816
326.578	0.183
326.92	0.1837
327.262	0.1845
327.604	0.1862
327.946	0.1874
328.287	0.1894
328.629	0.1899
328.97	0.1914
329.312	0.193
329.653	0.1939
329.994	0.1961
330.335	0.1967
330.676	0.1981
331.017	0.1993
331.358	0.2009
331.699	0.2022
332.04	0.2034
332.38	0.2045
332.721	0.2068
333.061	0.2072
333.402	0.2089
333.742	0.2108
334.083	0.2111
334.423	0.2127
334.763	0.2133
335.103	0.2148
335.443	0.2158
335.783	0.2172
336.123	0.2175
336.462	0.2193
336.802	0.2202
337.141	0.2214
337.481	0.2222
337.82	0.2229
338.16	0.2237
338.499	0.2253
338.838	0.2264
339.177	0.2284
339.516	0.2282
339.855	0.2304
340.194	0.2309
340.533	0.2316
340.872	0.2321
341.21	0.2337
341.549	0.2339
341.887	0.235
342.226	0.2349
342.564	0.235
342.902	0.2363
343.24	0.236
343.578	0.2365
343.916	0.2367
344.254	0.2369
344.592	0.2374
344.93	0.2385
345.268	0.2381
345.605	0.2384
345.943	0.2385
346.28	0.2386
346.618	0.2388
346.955	0.2388
347.292	0.2388
347.629	0.2397
347.966	0.2397
348.303	0.2397
348.64	0.2393
348.977	0.2395
349.314	0.2399
349.65	0.2398
349.987	0.2402
350.324	0.2391
350.66	0.2387
350.996	0.2389
351.333	0.2375
351.669	0.2369
352.005	0.2364
352.341	0.2358
352.677	0.235
353.013	0.2337
353.349	0.2329
353.685	0.232
354.02	0.231
354.356	0.2308
354.691	0.229
355.027	0.2285
355.362	0.2279
355.697	0.2263
356.033	0.2252
356.368	0.224
356.703	0.2237
357.038	0.2227
357.373	0.222
357.707	0.2214
358.042	0.2193
358.377	0.2194
358.711	0.2175
359.046	0.2169
359.38	0.2154
359.715	0.2154
360.049	0.2136
360.383	0.2128
360.717	0.2116
361.051	0.2095
361.385	0.2087
361.719	0.2062
362.053	0.2053
362.387	0.203
362.72	0.2009
363.054	0.1999
363.387	0.1984
363.721	0.1973
364.054	0.1946
364.387	0.1929
364.721	0.192
365.054	0.1895
365.387	0.1881
365.72	0.1868
366.053	0.1848
366.385	0.1831
366.718	0.1825
367.051	0.1806
367.383	0.1786
367.716	0.1776
368.048	0.1769
368.381	0.1746
368.713	0.1738
369.045	0.1723
369.377	0.1707
369.709	0.17
370.041	0.1683
370.373	0.1681
370.705	0.1657
371.037	0.1638
371.368	0.162
371.7	0.1609
372.031	0.1593
372.363	0.1578
372.694	0.1554
373.025	0.1538
373.356	0.1518
373.688	0.1494
374.019	0.147
374.35	0.1459
374.68	0.1438
375.011	0.1417
375.342	0.1396
375.673	0.1382
376.003	0.1361
376.334	0.1345
376.664	0.1329
376.995	0.131
377.325	0.1305
377.655	0.1287
377.985	0.1271
378.315	0.1262
378.645	0.1244
378.975	0.1225
379.305	0.1216
379.635	0.1208
379.964	0.1193
380.294	0.1182
380.623	0.1167
380.953	0.1158
381.282	0.1141
381.611	0.1127
381.941	0.1114
382.27	0.1104
382.599	0.1086
382.928	0.1071
383.257	0.106
383.585	0.1045
383.914	0.1031
384.243	0.1019
384.571	0.0998
384.9	0.0979
385.228	0.0967
385.557	0.0954
385.885	0.0942
386.213	0.0925
386.541	0.0903
386.869	0.0892
387.197	0.0872
387.525	0.086
387.853	0.0843
388.181	0.0837
388.508	0.0825
388.836	0.0811
389.164	0.08
389.491	0.0783
389.818	0.0775
390.146	0.0765
390.473	0.0747
390.8	0.0739
391.127	0.0724
391.454	0.0721
391.781	0.0716
392.108	0.0695
392.435	0.0692
392.761	0.0671
393.088	0.067
393.415	0.0663
393.741	0.066
394.067	0.0647
394.394	0.0644
394.72	0.0635
395.046	0.0625
395.372	0.0613
395.698	0.0596
396.024	0.0599
396.35	0.0586
396.676	0.0584
397.001	0.0577
397.327	0.056
397.653	0.0554
397.978	0.0542
398.303	0.0538
398.629	0.0529
398.954	0.053
399.279	0.0523
399.604	0.0512
399.929	0.0506
400.254	0.0501
400.579	0.0497
400.904	0.0483
401.229	0.0481
401.553	0.0472
401.878	0.0469
402.202	0.0463
402.527	0.046
402.851	0.0457
403.175	0.0453
403.5	0.0446
403.824	0.0446
404.148	0.0442
404.472	0.0442
404.796	0.043
405.119	0.0425
405.443	0.0427
405.767	0.0422
406.09	0.0419
406.414	0.0421
406.737	0.0411
407.061	0.0421
407.384	0.0414
407.707	0.041
408.03	0.0411
408.353	0.0413
408.676	0.041
408.999	0.0402
409.322	0.0406
409.645	0.0406
409.968	0.0399
410.29	0.04
410.613	0.04
410.935	0.0399
411.258	0.04
411.58	0.0398
411.902	0.0404
412.224	0.0402
412.546	0.0399
412.868	0.0397
413.19	0.0395
413.512	0.0396
413.834	0.0395
414.156	0.0402
414.477	0.0393
414.799	0.039
415.121	0.0394
415.442	0.0403
415.763	0.0402
416.085	0.0401
416.406	0.0399
416.727	0.04
417.048	0.0393
417.369	0.0399
417.69	0.0392
418.011	0.0396
418.331	0.0396
418.652	0.0394
418.973	0.0401
419.293	0.04
419.614	0.04
419.934	0.0402
420.254	0.0399
420.574	0.0395
420.895	0.0399
421.215	0.0396
421.535	0.0396
421.855	0.0396
422.174	0.0395
422.494	0.0395
422.814	0.0404
423.134	0.0399
423.453	0.0401
423.773	0.0399
424.092	0.0399
424.411	0.0398
424.731	0.0404
425.05	0.0405
425.369	0.0402
425.688	0.0401
426.007	0.0406
426.326	0.041
426.644	0.0414
426.963	0.0414
427.282	0.0414
427.6	0.0414
427.919	0.0412
428.237	0.0412
428.556	0.0414
428.874	0.041
429.192	0.0407
429.51	0.0412
429.828	0.0417
430.146	0.0413
430.464	0.0411
430.782	0.0412
431.1	0.0415
431.418	0.0412
431.735	0.041
432.053	0.0418
432.37	0.042
432.688	0.0416
433.005	0.0417
433.322	0.0416
433.639	0.0416
433.957	0.042
434.274	0.042
434.591	0.0423
434.907	0.0425
435.224	0.0415
435.541	0.0417
435.858	0.0426
436.174	0.042
436.491	0.0424
436.807	0.0423
437.124	0.0414
437.44	0.0419
437.756	0.0412
438.072	0.0413
438.388	0.0427
438.704	0.0422
439.02	0.0421
439.336	0.0413
439.652	0.0418
439.968	0.0427
440.283	0.0419
440.599	0.0422
440.914	0.042
441.23	0.0417
441.545	0.0416
441.86	0.0419
442.175	0.0418
442.491	0.0418
442.806	0.0415
443.121	0.0415
443.435	0.0413
443.75	0.0412
444.065	0.0411
444.38	0.042
444.694	0.0414
445.009	0.041
445.323	0.0412
445.638	0.0414
445.952	0.0414
446.266	0.0411
446.58	0.0416
446.894	0.0416
447.208	0.0423
447.522	0.0412
447.836	0.0397
448.15	0.0403
448.464	0.0401
448.777	0.0404
449.091	0.0404
449.404	0.0412
449.718	0.0405
450.031	0.0404
450.345	0.0406
450.658	0.0403
450.971	0.0405
451.284	0.0395
451.597	0.0404
451.91	0.0404
452.223	0.0393
452.535	0.0403
452.848	0.0404
453.161	0.0394
453.473	0.04
453.786	0.0395
454.098	0.039
454.411	0.039
454.723	0.0383
455.035	0.0386
455.347	0.0396
455.659	0.0388
455.971	0.0389
456.283	0.0388
456.595	0.0385
456.907	0.0384
457.218	0.039
457.53	0.0384
457.841	0.0375
458.153	0.0372
458.464	0.0381
458.776	0.0363
459.087	0.0369
459.398	0.0375
459.709	0.0371
460.02	0.0371
460.331	0.0367
460.642	0.0364
460.953	0.0363
461.263	0.0359
461.574	0.036
461.885	0.0363
462.195	0.0361
462.506	0.0357
462.816	0.0353
463.126	0.035
463.437	0.0349
463.747	0.034
464.057	0.0354
464.367	0.0339
464.677	0.0344
464.987	0.0338
465.296	0.0332
465.606	0.0336
465.916	0.0331
466.225	0.0333
466.535	0.0328
466.844	0.0329
467.154	0.0324
467.463	0.032
467.772	0.0333
468.081	0.032
468.39	0.0321
468.699	0.0321
469.008	0.0317
469.317	0.0323
469.626	0.0313
469.935	0.0315
470.243	0.0316
470.552	0.0321
470.86	0.0319
471.169	0.031
471.477	0.0306
471.785	0.0312
472.093	0.0308
472.402	0.03
472.71	0.0294
473.018	0.0291
473.326	0.0286
473.633	0.0291
473.941	0.0295
474.249	0.0289
474.556	0.0289
474.864	0.0278
475.171	0.0272
475.479	0.0281
475.786	0.0278
476.094	0.0271
476.401	0.0281
476.708	0.027
477.015	0.0281
477.322	0.0272
477.629	0.0275
477.936	0.0262
478.242	0.0265
478.549	0.0259
478.856	0.0258
479.162	0.0259
479.469	0.026
479.775	0.0256
480.081	0.0244
480.388	0.0249
480.694	0.0246
481	0.0246
481.306	0.0244
481.612	0.0245
481.918	0.0245
482.224	0.0246
482.53	0.024
482.835	0.023
483.141	0.0229
483.446	0.0228
483.752	0.0225
484.057	0.0222
484.363	0.0223
484.668	0.0219
484.973	0.022
485.278	0.0217
485.583	0.0207
485.888	0.0207
486.193	0.02
486.498	0.021
486.803	0.0216
487.107	0.0199
487.412	0.0199
487.717	0.0201
488.021	0.0201
488.325	0.0198
488.63	0.0188
488.934	0.0192
489.238	0.0194
489.542	0.0194
489.846	0.018
490.15	0.0191
490.454	0.0181
490.758	0.0186
491.062	0.0182
491.366	0.018
491.669	0.0188
491.973	0.0179
492.276	0.0174
492.58	0.0167
492.883	0.0169
493.186	0.0176
493.489	0.017
493.792	0.0172
494.096	0.0173
494.399	0.0169
494.701	0.0169
495.004	0.0168
495.307	0.015
495.61	0.0153
495.912	0.0148
496.215	0.0149
496.517	0.0148
496.82	0.015
497.122	0.0157
497.424	0.0147
497.727	0.0145
498.029	0.0151
498.331	0.015
498.633	0.0142
498.935	0.0143
499.237	0.014
499.538	0.0136
499.84	0.0129
500.142	0.0142
500.443	0.0129
500.745	0.013
501.046	0.0141
501.348	0.0125
501.649	0.0135
501.95	0.0125
502.251	0.0127
502.552	0.0112
502.853	0.011
503.154	0.012
503.455	0.0104
503.756	0.0115
504.057	0.0121
504.357	0.0107
504.658	0.0114
504.958	0.0114
505.259	0.0118
505.559	0.012
505.859	0.0112
506.16	0.0112
506.46	0.0109
506.76	0.0107
507.06	0.0102
507.36	0.0105
507.66	0.0114
507.96	0.011
508.259	0.0093
508.559	0.0091
508.859	0.0104
509.158	0.0092
509.457	0.0093
509.757	0.0102
510.056	0.0096
510.355	0.0089
510.655	0.0081
510.954	0.0094
511.253	0.0091
511.552	0.0085
511.851	0.0081
512.149	0.0079
512.448	0.0073
512.747	0.0093
513.045	0.007
513.344	0.0082
513.642	0.0085
513.941	0.0081
514.239	0.0084
514.537	0.0075
514.836	0.0081
515.134	0.0072
515.432	0.0079
515.73	0.0083
516.028	0.0065
516.326	0.0073
516.623	0.0072
516.921	0.0062
517.219	0.0079
517.516	0.0077
517.814	0.0065
518.111	0.007
518.409	0.0088
518.706	0.0068
519.003	0.0077
519.3	0.0062
519.597	0.0066
519.894	0.0068
520.191	0.0065
520.488	0.0073
520.785	0.0057
521.082	0.0058
521.378	0.0066
521.675	0.0052
521.971	0.0061
522.268	0.0058
522.564	0.0054
522.861	0.0062
523.157	0.0052
523.453	0.0057
523.749	0.0059
524.045	0.0061
524.341	0.0058
524.637	0.0042
524.933	0.0048
525.229	0.006
525.524	0.004
525.82	0.0064
526.115	0.0053
526.411	0.0046
526.706	0.006
527.002	0.0057
527.297	0.0049
527.592	0.0059
527.887	0.0067
528.182	0.0057
528.477	0.0061
528.772	0.0051
529.067	0.0056
529.362	0.0051
529.657	0.0042
529.951	0.0053
530.246	0.0039
530.54	0.0039
530.835	0.0027
531.129	0.0033
531.423	0.0044
531.718	0.0033
532.012	0.0039
532.306	0.0034
532.6	0.0043
532.894	0.0038
533.188	0.0042
533.482	0.004
533.775	0.0037
534.069	0.0037
534.363	0.0037
534.656	0.0034
534.95	0.0027
535.243	0.004
535.536	0.0031
535.83	0.0046
536.123	0.0032
536.416	0.0038
536.709	0.0038
537.002	0.0048
537.295	0.0035
537.588	0.0048
537.881	0.0032
538.173	0.0032
538.466	0.0037
538.759	0.0033
539.051	0.0028
539.344	0.003
539.636	0.003
539.928	0.0024
540.22	0.0032
540.513	0.0038
540.805	0.0041
541.097	0.0032
541.389	0.0034
541.681	0.0029
541.972	0.0042
542.264	0.0024
542.556	0.0041
542.847	0.0035
543.139	0.0034
543.431	0.0042
543.722	0.0026
544.013	0.0051
544.305	0.0053
544.596	0.0052
544.887	0.0034
545.178	0.0034
545.469	0.0031
545.76	0.0031
546.051	0.0041
546.342	0.0047
546.632	0.0027
546.923	0.0034
547.214	0.0035
547.504	0.0027
547.795	0.0041
548.085	0.0044
548.375	0.0031
548.666	0.0035
548.956	0.0034
549.246	0.0031
549.536	0.0025
549.826	0.0039
550.116	0.0043
550.406	0.0032
550.695	0.0041
550.985	0.0044
551.275	0.004
551.564	0.0033
551.854	0.005
552.143	0.0033
552.433	0.0045
552.722	0.0039
553.011	0.0036
553.3	0.0043
553.589	0.0038
553.879	0.0028
554.167	0.0038
554.456	0.004
554.745	0.0034
555.034	0.0024
555.323	0.0019
555.611	0.002
555.9	0.0027
556.188	0.0034
556.477	0.0031
556.765	0.0017
557.053	0.0021
557.342	0.0022
557.63	0.0031
557.918	0.0034
558.206	0.0023
558.494	0.0038
558.782	0.0033
559.069	0.0033
559.357	0.0031
559.645	0.0022
559.932	0.0029
560.22	0.0033
560.507	0.0037
560.795	0.0027
561.082	0.0021
561.37	0.0028
561.657	0.0024
561.944	0.0038
562.231	0.0035
562.518	0.0023
562.805	0.0035
563.092	0.0036
563.379	0.0033
563.665	0.0026
563.952	0.0033
564.239	0.0035
564.525	0.0051
564.811	0.0036
565.098	0.0035
565.384	0.0045
565.67	0.0036
565.957	0.0035
566.243	0.0031
566.529	0.0047
566.815	0.0057
567.101	0.0031
567.387	0.0035
567.672	0.0024
567.958	0.0038
568.244	0.003
568.529	0.0037
568.815	0.003
569.1	0.004
569.386	0.0029
569.671	0.0039
569.956	0.0031
570.242	0.0033
570.527	0.004
570.812	0.004
571.097	0.0037
571.382	0.003
571.666	0.0029
571.951	0.0034
572.236	0.0041
572.521	0.0026
572.805	0.0039
573.09	0.0028
573.374	0.0031
573.659	0.0026
573.943	0.0036
574.227	0.0028
574.511	0.0038
574.795	0.0029
575.079	0.0026
575.363	0.0038
575.647	0.0037
575.931	0.003
576.215	0.0034
576.499	0.0027
576.782	0.0029
577.066	0.0025
577.349	0.0033
577.633	0.0046
577.916	0.0041
578.2	0.0043
578.483	0.0031
578.766	0.0033
579.049	0.0045
579.332	0.0036
579.615	0.003
579.898	0.0037
580.181	0.0034
580.464	0.0028
580.746	0.0025
581.029	0.0034
581.312	0.0027
581.594	0.0026
581.877	0.0036
582.159	0.0039
582.441	0.0038
582.724	0.0033
583.006	0.003
583.288	0.0021
583.57	0.002
583.852	0.0025
584.134	0.0022
584.416	0.0024
584.697	0.0028
584.979	0.0033
585.261	0.0027
585.542	0.0028
585.824	0.0029
586.105	0.0035
586.387	0.0026
586.668	0.0027
586.949	0.0026
587.231	0.0024
587.512	0.0033
587.793	0.003
588.074	0.0031
588.355	0.0032
588.636	0.0038
588.916	0.0029
589.197	0.0036
589.478	0.0031
589.758	0.0027
590.039	0.0029
590.319	0.0033
590.6	0.0027
590.88	0.0021
591.16	0.0034
591.441	0.0033
591.721	0.0034
592.001	0.0029
592.281	0.0031
592.561	0.0034
592.841	0.0034
593.12	0.0028
593.4	0.0023
593.68	0.0033
593.959	0.0034
594.239	0.0041
594.518	0.0025
594.798	0.0035
595.077	0.0028
595.356	0.0029
595.636	0.0035
595.915	0.0033
596.194	0.0035
596.473	0.0033
596.752	0.0025
