Data from 03 0.2 mM BQDS 0.4 mM K2Cr2O7 1 M H2SO4 5 min_Absorbance_01-37-42-367.txt Node
Date: Wed Dec 08 01:37:42 EST 2021
User: kwabilab-user
Spectrometer: HDX00518
Trigger mode: 0
Integration Time (sec): 5.000000E-2
Scans to average: 50
Nonlinearity correction enabled: false
Boxcar width: 0
Storing dark spectrum: false
XAxis mode: Wavelengths
Number of Pixels in Spectrum: 2068
>>>>>Begin Spectral Data<<<<<
195.27	-0.157
195.642	-0.0812
196.014	-0.0215
196.386	-0.1526
196.758	-0.056
197.129	-0.0179
197.501	-0.0011
197.872	0.0604
198.244	0.0923
198.615	0.0931
198.986	0.084
199.357	0.0654
199.728	0.0815
200.099	0.0725
200.47	0.077
200.841	0.0698
201.212	0.0867
201.582	0.0622
201.953	0.0831
202.323	0.0725
202.694	0.077
203.064	0.0746
203.434	0.0663
203.804	0.0893
204.174	0.0856
204.544	0.0649
204.914	0.0661
205.284	0.0817
205.653	0.0854
206.023	0.0762
206.393	0.0727
206.762	0.0837
207.131	0.0732
207.501	0.0861
207.87	0.1042
208.239	0.0871
208.608	0.0793
208.977	0.099
209.346	0.0954
209.715	0.0836
210.083	0.1108
210.452	0.0916
210.82	0.1132
211.189	0.0978
211.557	0.093
211.925	0.1079
212.294	0.132
212.662	0.1279
213.03	0.1205
213.398	0.1125
213.766	0.1466
214.133	0.1539
214.501	0.1607
214.869	0.1659
215.236	0.1886
215.604	0.1914
215.971	0.2121
216.338	0.2173
216.705	0.2366
217.072	0.2684
217.439	0.2878
217.806	0.3105
218.173	0.3456
218.54	0.3633
218.907	0.4028
219.273	0.4446
219.64	0.4711
220.006	0.5148
220.373	0.537
220.739	0.5863
221.105	0.6242
221.471	0.6399
221.837	0.68
222.203	0.7361
222.569	0.7682
222.935	0.7975
223.3	0.8229
223.666	0.8501
224.031	0.8778
224.397	0.8989
224.762	0.9108
225.127	0.9408
225.493	0.946
225.858	0.9533
226.223	0.9735
226.588	0.9873
226.952	0.985
227.317	0.9896
227.682	0.9819
228.046	0.9819
228.411	0.9835
228.775	0.9878
229.14	0.982
229.504	0.9736
229.868	0.9778
230.232	0.9656
230.596	0.9623
230.96	0.9507
231.324	0.9443
231.688	0.9312
232.052	0.9272
232.415	0.9206
232.779	0.9144
233.142	0.9073
233.505	0.8928
233.869	0.887
234.232	0.8753
234.595	0.8655
234.958	0.8562
235.321	0.8478
235.684	0.8402
236.047	0.8289
236.409	0.8222
236.772	0.8127
237.134	0.8047
237.497	0.7961
237.859	0.7875
238.222	0.781
238.584	0.7715
238.946	0.7646
239.308	0.758
239.67	0.7514
240.032	0.7444
240.393	0.7363
240.755	0.7308
241.117	0.7243
241.478	0.7181
241.84	0.7123
242.201	0.7042
242.562	0.7012
242.924	0.6938
243.285	0.6889
243.646	0.6817
244.007	0.6795
244.368	0.6751
244.728	0.6703
245.089	0.6651
245.45	0.6636
245.81	0.6598
246.171	0.6561
246.531	0.6507
246.891	0.6489
247.252	0.6459
247.612	0.6451
247.972	0.6396
248.332	0.6381
248.692	0.6351
249.051	0.6325
249.411	0.6325
249.771	0.6271
250.13	0.6255
250.49	0.6249
250.849	0.6236
251.208	0.6212
251.568	0.619
251.927	0.6183
252.286	0.6175
252.645	0.6163
253.004	0.6151
253.363	0.6112
253.721	0.6123
254.08	0.6104
254.439	0.6096
254.797	0.6083
255.155	0.6062
255.514	0.6061
255.872	0.6051
256.23	0.6008
256.588	0.6025
256.946	0.6013
257.304	0.6016
257.662	0.6001
258.02	0.6006
258.377	0.5979
258.735	0.5951
259.093	0.595
259.45	0.5941
259.807	0.5942
260.165	0.5931
260.522	0.5891
260.879	0.5893
261.236	0.5908
261.593	0.5876
261.95	0.5853
262.306	0.587
262.663	0.5837
263.02	0.5812
263.376	0.581
263.733	0.5774
264.089	0.5755
264.445	0.5744
264.802	0.5729
265.158	0.5706
265.514	0.5687
265.87	0.5665
266.226	0.5636
266.581	0.5632
266.937	0.56
267.293	0.5596
267.648	0.5565
268.004	0.5544
268.359	0.5512
268.714	0.5484
269.07	0.5464
269.425	0.5436
269.78	0.5427
270.135	0.5379
270.49	0.5354
270.844	0.5338
271.199	0.5301
271.554	0.5288
271.908	0.5245
272.263	0.5207
272.617	0.5183
272.972	0.5136
273.326	0.5109
273.68	0.5081
274.034	0.5046
274.388	0.5029
274.742	0.497
275.096	0.4948
275.45	0.4906
275.803	0.4872
276.157	0.4819
276.51	0.4787
276.864	0.4755
277.217	0.472
277.571	0.4673
277.924	0.4627
278.277	0.4594
278.63	0.4552
278.983	0.4512
279.336	0.448
279.688	0.4428
280.041	0.4403
280.394	0.4345
280.746	0.431
281.099	0.4269
281.451	0.4221
281.803	0.4192
282.156	0.4158
282.508	0.4112
282.86	0.406
283.212	0.4019
283.564	0.3981
283.916	0.3944
284.267	0.3889
284.619	0.3853
284.971	0.3816
285.322	0.3774
285.673	0.374
286.025	0.37
286.376	0.3663
286.727	0.3612
287.078	0.3572
287.429	0.3539
287.78	0.3489
288.131	0.3448
288.482	0.3408
288.833	0.3378
289.183	0.3333
289.534	0.3291
289.884	0.325
290.235	0.3217
290.585	0.3171
290.935	0.3131
291.285	0.3098
291.635	0.306
291.985	0.3016
292.335	0.2986
292.685	0.2941
293.035	0.2906
293.384	0.2866
293.734	0.2823
294.083	0.278
294.433	0.2749
294.782	0.2717
295.131	0.2677
295.48	0.2644
295.829	0.2611
296.179	0.2568
296.527	0.2533
296.876	0.2506
297.225	0.2482
297.574	0.2443
297.922	0.2409
298.271	0.2373
298.619	0.2334
298.968	0.2315
299.316	0.228
299.664	0.2254
300.012	0.2226
300.36	0.2182
300.708	0.2161
301.056	0.2142
301.404	0.211
301.752	0.2081
302.099	0.2061
302.447	0.2036
302.794	0.2006
303.142	0.1986
303.489	0.197
303.836	0.1945
304.183	0.1923
304.531	0.1905
304.878	0.1886
305.224	0.1858
305.571	0.1849
305.918	0.1832
306.265	0.1817
306.611	0.18
306.958	0.179
307.304	0.177
307.651	0.1756
307.997	0.1749
308.343	0.1735
308.689	0.1724
309.035	0.1712
309.381	0.1709
309.727	0.1691
310.073	0.1689
310.419	0.1679
310.764	0.1672
311.11	0.167
311.455	0.1657
311.801	0.1656
312.146	0.1646
312.491	0.1647
312.837	0.164
313.182	0.1644
313.527	0.1634
313.872	0.1632
314.216	0.1631
314.561	0.1636
314.906	0.1635
315.251	0.1632
315.595	0.1631
315.94	0.1635
316.284	0.1638
316.628	0.1634
316.972	0.1636
317.317	0.1637
317.661	0.1649
318.005	0.165
318.348	0.165
318.692	0.1654
319.036	0.1661
319.38	0.1666
319.723	0.1676
320.067	0.1679
320.41	0.168
320.754	0.169
321.097	0.17
321.44	0.1708
321.783	0.172
322.126	0.1725
322.469	0.1739
322.812	0.1745
323.155	0.1759
323.498	0.1769
323.84	0.1775
324.183	0.1792
324.525	0.1802
324.868	0.1808
325.21	0.1823
325.552	0.1838
325.894	0.1842
326.236	0.1857
326.578	0.1867
326.92	0.1882
327.262	0.1888
327.604	0.1902
327.946	0.1917
328.287	0.1928
328.629	0.1942
328.97	0.1951
329.312	0.197
329.653	0.1981
329.994	0.1995
330.335	0.201
330.676	0.202
331.017	0.2033
331.358	0.2046
331.699	0.2061
332.04	0.208
332.38	0.2084
332.721	0.2119
333.061	0.2118
333.402	0.2131
333.742	0.2147
334.083	0.216
334.423	0.2167
334.763	0.2176
335.103	0.2195
335.443	0.2203
335.783	0.2217
336.123	0.2224
336.462	0.2234
336.802	0.2248
337.141	0.226
337.481	0.2271
337.82	0.2282
338.16	0.2287
338.499	0.2297
338.838	0.2305
339.177	0.2328
339.516	0.2333
339.855	0.2347
340.194	0.2351
340.533	0.2366
340.872	0.2374
341.21	0.2389
341.549	0.2388
341.887	0.2399
342.226	0.2405
342.564	0.2401
342.902	0.2407
343.24	0.2417
343.578	0.2415
343.916	0.2422
344.254	0.2421
344.592	0.2427
344.93	0.2435
345.268	0.2431
345.605	0.2432
345.943	0.2434
346.28	0.2439
346.618	0.2439
346.955	0.2439
347.292	0.2441
347.629	0.2445
347.966	0.2442
348.303	0.2453
348.64	0.2443
348.977	0.244
349.314	0.2447
349.65	0.2454
349.987	0.2448
350.324	0.2442
350.66	0.2439
350.996	0.2437
351.333	0.2426
351.669	0.2423
352.005	0.2417
352.341	0.2404
352.677	0.2404
353.013	0.2391
353.349	0.239
353.685	0.2369
354.02	0.236
354.356	0.2351
354.691	0.2342
355.027	0.233
355.362	0.2319
355.697	0.2314
356.033	0.23
356.368	0.2288
356.703	0.2291
357.038	0.2274
357.373	0.2268
357.707	0.2263
358.042	0.2248
358.377	0.2238
358.711	0.223
359.046	0.2219
359.38	0.2204
359.715	0.2199
360.049	0.2189
360.383	0.2174
360.717	0.2162
361.051	0.2137
361.385	0.2142
361.719	0.2107
362.053	0.2105
362.387	0.2078
362.72	0.2061
363.054	0.2043
363.387	0.2025
363.721	0.2014
364.054	0.1991
364.387	0.1971
364.721	0.1961
365.054	0.1939
365.387	0.192
365.72	0.1907
366.053	0.1893
366.385	0.1872
366.718	0.1861
367.051	0.1843
367.383	0.1834
367.716	0.1818
368.048	0.1806
368.381	0.1786
368.713	0.1786
369.045	0.1763
369.377	0.1749
369.709	0.1739
370.041	0.1721
370.373	0.1711
370.705	0.1692
371.037	0.1674
371.368	0.1657
371.7	0.1647
372.031	0.1631
372.363	0.1605
372.694	0.1588
373.025	0.1569
373.356	0.1553
373.688	0.1534
374.019	0.151
374.35	0.1493
374.68	0.1479
375.011	0.1447
375.342	0.1431
375.673	0.1415
376.003	0.1392
376.334	0.1379
376.664	0.1357
376.995	0.1345
377.325	0.1332
377.655	0.132
377.985	0.1302
378.315	0.1291
378.645	0.1274
378.975	0.1261
379.305	0.1251
379.635	0.1236
379.964	0.1219
380.294	0.1211
380.623	0.1194
380.953	0.1187
381.282	0.1166
381.611	0.115
381.941	0.1138
382.27	0.113
382.599	0.1116
382.928	0.1099
383.257	0.1083
383.585	0.107
383.914	0.1056
384.243	0.1038
384.571	0.1027
384.9	0.1008
385.228	0.0992
385.557	0.0981
385.885	0.0967
386.213	0.0943
386.541	0.0931
386.869	0.0914
387.197	0.0898
387.525	0.0882
387.853	0.0862
388.181	0.0858
388.508	0.0847
388.836	0.0833
389.164	0.0818
389.491	0.081
389.818	0.0798
390.146	0.0782
390.473	0.0764
390.8	0.0757
391.127	0.0744
391.454	0.0744
391.781	0.073
392.108	0.0717
392.435	0.071
392.761	0.0694
393.088	0.0688
393.415	0.0681
393.741	0.0681
394.067	0.0671
394.394	0.0664
394.72	0.0649
395.046	0.0638
395.372	0.0632
395.698	0.062
396.024	0.0621
396.35	0.0605
396.676	0.0602
397.001	0.0596
397.327	0.058
397.653	0.0571
397.978	0.0563
398.303	0.055
398.629	0.0545
398.954	0.0543
399.279	0.0535
399.604	0.0526
399.929	0.0523
400.254	0.0514
400.579	0.0508
400.904	0.0497
401.229	0.0494
401.553	0.0484
401.878	0.0479
402.202	0.048
402.527	0.0476
402.851	0.0475
403.175	0.0463
403.5	0.0461
403.824	0.0463
404.148	0.0453
404.472	0.0453
404.796	0.0446
405.119	0.0439
405.443	0.0439
405.767	0.0435
406.09	0.0432
406.414	0.0436
406.737	0.0431
407.061	0.0425
407.384	0.0428
407.707	0.0423
408.03	0.0429
408.353	0.0427
408.676	0.042
408.999	0.0419
409.322	0.0414
409.645	0.042
409.968	0.0412
410.29	0.0417
410.613	0.0412
410.935	0.0404
411.258	0.0413
411.58	0.041
411.902	0.0411
412.224	0.041
412.546	0.0406
412.868	0.0408
413.19	0.0413
413.512	0.0406
413.834	0.0408
414.156	0.0409
414.477	0.0403
414.799	0.0402
415.121	0.0409
415.442	0.041
415.763	0.0411
416.085	0.0408
416.406	0.0405
416.727	0.0409
417.048	0.0406
417.369	0.0402
417.69	0.0404
418.011	0.0409
418.331	0.0401
418.652	0.0411
418.973	0.0414
419.293	0.0407
419.614	0.0413
419.934	0.0413
420.254	0.0409
420.574	0.0402
420.895	0.0409
421.215	0.0409
421.535	0.0403
421.855	0.0411
422.174	0.0404
422.494	0.0409
422.814	0.0418
423.134	0.0413
423.453	0.0411
423.773	0.042
424.092	0.0412
424.411	0.041
424.731	0.042
425.05	0.0415
425.369	0.0419
425.688	0.0414
426.007	0.0421
426.326	0.0422
426.644	0.0423
426.963	0.0424
427.282	0.0427
427.6	0.0416
427.919	0.0418
428.237	0.0428
428.556	0.043
428.874	0.0417
429.192	0.0425
429.51	0.0422
429.828	0.0425
430.146	0.0424
430.464	0.0428
430.782	0.0425
431.1	0.0425
431.418	0.0425
431.735	0.0426
432.053	0.043
432.37	0.0425
432.688	0.0429
433.005	0.0423
433.322	0.0431
433.639	0.0424
433.957	0.0431
434.274	0.0427
434.591	0.0428
434.907	0.0435
435.224	0.0426
435.541	0.0436
435.858	0.0439
436.174	0.0435
436.491	0.0429
436.807	0.0434
437.124	0.0426
437.44	0.0428
437.756	0.0424
438.072	0.0424
438.388	0.0436
438.704	0.0429
439.02	0.0428
439.336	0.0425
439.652	0.043
439.968	0.0431
440.283	0.0431
440.599	0.0429
440.914	0.0429
441.23	0.0429
441.545	0.043
441.86	0.0426
442.175	0.0429
442.491	0.0418
442.806	0.0421
443.121	0.0423
443.435	0.0424
443.75	0.043
444.065	0.0423
444.38	0.0432
444.694	0.0425
445.009	0.0425
445.323	0.0423
445.638	0.0425
445.952	0.0425
446.266	0.0421
446.58	0.0423
446.894	0.0422
447.208	0.0427
447.522	0.0426
447.836	0.0411
448.15	0.0414
448.464	0.0409
448.777	0.0414
449.091	0.0413
449.404	0.0419
449.718	0.0415
450.031	0.0416
450.345	0.041
450.658	0.0408
450.971	0.0407
451.284	0.0408
451.597	0.0412
451.91	0.0411
452.223	0.0402
452.535	0.041
452.848	0.0404
453.161	0.0403
453.473	0.0414
453.786	0.0405
454.098	0.0397
454.411	0.0401
454.723	0.0394
455.035	0.0399
455.347	0.0404
455.659	0.0402
455.971	0.0394
456.283	0.0402
456.595	0.0392
456.907	0.0394
457.218	0.0396
457.53	0.0395
457.841	0.0384
458.153	0.0387
458.464	0.0381
458.776	0.0371
459.087	0.0375
459.398	0.0382
459.709	0.0381
460.02	0.0377
460.331	0.0374
460.642	0.0366
460.953	0.0373
461.263	0.0376
461.574	0.0372
461.885	0.0371
462.195	0.0364
462.506	0.0364
462.816	0.0362
463.126	0.0356
463.437	0.0351
463.747	0.0352
464.057	0.0357
464.367	0.0355
464.677	0.035
464.987	0.0347
465.296	0.0348
465.606	0.0348
465.916	0.0339
466.225	0.0332
466.535	0.034
466.844	0.0336
467.154	0.0333
467.463	0.0332
467.772	0.0329
468.081	0.0327
468.39	0.0327
468.699	0.0323
469.008	0.0329
469.317	0.0326
469.626	0.0323
469.935	0.0317
470.243	0.0322
470.552	0.0322
470.86	0.0316
471.169	0.0317
471.477	0.0311
471.785	0.0313
472.093	0.0313
472.402	0.0303
472.71	0.0303
473.018	0.0302
473.326	0.0295
473.633	0.0295
473.941	0.0297
474.249	0.0293
474.556	0.0296
474.864	0.0291
475.171	0.0284
475.479	0.0289
475.786	0.0291
476.094	0.0282
476.401	0.0285
476.708	0.028
477.015	0.0285
477.322	0.0278
477.629	0.0268
477.936	0.0271
478.242	0.027
478.549	0.027
478.856	0.0263
479.162	0.0266
479.469	0.0266
479.775	0.0264
480.081	0.0252
480.388	0.0253
480.694	0.0252
481	0.0251
481.306	0.0261
481.612	0.025
481.918	0.0246
482.224	0.0249
482.53	0.0246
482.835	0.024
483.141	0.0223
483.446	0.0235
483.752	0.0227
484.057	0.0224
484.363	0.0222
484.668	0.0215
484.973	0.0225
485.278	0.0221
485.583	0.0216
485.888	0.0207
486.193	0.0208
486.498	0.0212
486.803	0.022
487.107	0.0213
487.412	0.0209
487.717	0.0203
488.021	0.0207
488.325	0.0198
488.63	0.0197
488.934	0.0202
489.238	0.021
489.542	0.0193
489.846	0.0182
490.15	0.0199
490.454	0.0196
490.758	0.0189
491.062	0.0187
491.366	0.0183
491.669	0.0177
491.973	0.0183
492.276	0.0181
492.58	0.0166
492.883	0.0187
493.186	0.018
493.489	0.0178
493.792	0.0179
494.096	0.0174
494.399	0.0172
494.701	0.0171
495.004	0.0162
495.307	0.0156
495.61	0.0159
495.912	0.015
496.215	0.0155
496.517	0.016
496.82	0.0154
497.122	0.0149
497.424	0.0147
497.727	0.0145
498.029	0.0151
498.331	0.0142
498.633	0.0152
498.935	0.0132
499.237	0.0142
499.538	0.0139
499.84	0.0138
500.142	0.014
500.443	0.0144
500.745	0.0136
501.046	0.0137
501.348	0.013
501.649	0.0139
501.95	0.0129
502.251	0.0131
502.552	0.0113
502.853	0.0122
503.154	0.0118
503.455	0.0122
503.756	0.0121
504.057	0.012
504.357	0.01
504.658	0.0122
504.958	0.0115
505.259	0.0116
505.559	0.0115
505.859	0.0117
506.16	0.0119
506.46	0.0112
506.76	0.0119
507.06	0.0105
507.36	0.0111
507.66	0.0108
507.96	0.01
508.259	0.0097
508.559	0.0091
508.859	0.0099
509.158	0.0091
509.457	0.0095
509.757	0.0103
510.056	0.0095
510.355	0.0087
510.655	0.008
510.954	0.0091
511.253	0.0102
511.552	0.0091
511.851	0.0089
512.149	0.008
512.448	0.008
512.747	0.0087
513.045	0.0076
513.344	0.009
513.642	0.0077
513.941	0.0083
514.239	0.0077
514.537	0.0081
514.836	0.0081
515.134	0.008
515.432	0.0076
515.73	0.0087
516.028	0.0064
516.326	0.0076
516.623	0.0066
516.921	0.0073
517.219	0.0084
517.516	0.0076
517.814	0.0072
518.111	0.0072
518.409	0.0089
518.706	0.0073
519.003	0.0073
519.3	0.0064
519.597	0.0065
519.894	0.0066
520.191	0.007
520.488	0.0074
520.785	0.0055
521.082	0.0061
521.378	0.007
521.675	0.0049
521.971	0.0059
522.268	0.0068
522.564	0.0059
522.861	0.0054
523.157	0.0046
523.453	0.0056
523.749	0.0064
524.045	0.0067
524.341	0.0055
524.637	0.0051
524.933	0.0054
525.229	0.0059
525.524	0.0052
525.82	0.0069
526.115	0.0059
526.411	0.0054
526.706	0.0053
527.002	0.0055
527.297	0.0042
527.592	0.0067
527.887	0.0058
528.182	0.0062
528.477	0.0061
528.772	0.0047
529.067	0.0063
529.362	0.0052
529.657	0.0047
529.951	0.0054
530.246	0.0044
530.54	0.0033
530.835	0.0042
531.129	0.0033
531.423	0.0047
531.718	0.0046
532.012	0.0055
532.306	0.0028
532.6	0.0041
532.894	0.0036
533.188	0.0054
533.482	0.0031
533.775	0.0044
534.069	0.0033
534.363	0.0028
534.656	0.0037
534.95	0.0033
535.243	0.0037
535.536	0.0027
535.83	0.004
536.123	0.0027
536.416	0.0042
536.709	0.0041
537.002	0.004
537.295	0.0035
537.588	0.004
537.881	0.0035
538.173	0.0033
538.466	0.0031
538.759	0.0027
539.051	0.0015
539.344	0.0033
539.636	0.0028
539.928	0.0034
540.22	0.003
540.513	0.0047
540.805	0.0037
541.097	0.004
541.389	0.0021
541.681	0.0033
541.972	0.0038
542.264	0.0034
542.556	0.004
542.847	0.0036
543.139	0.0044
543.431	0.0046
543.722	0.0044
544.013	0.0055
544.305	0.0048
544.596	0.0056
544.887	0.0039
545.178	0.0035
545.469	0.0035
545.76	0.0037
546.051	0.0038
546.342	0.0044
546.632	0.0033
546.923	0.0043
547.214	0.0039
547.504	0.0032
547.795	0.0038
548.085	0.0041
548.375	0.0034
548.666	0.0031
548.956	0.0024
549.246	0.0032
549.536	0.0029
549.826	0.0033
550.116	0.0039
550.406	0.0044
550.695	0.0041
550.985	0.0047
551.275	0.0047
551.564	0.0033
551.854	0.0036
552.143	0.0036
552.433	0.0036
552.722	0.0031
553.011	0.003
553.3	0.004
553.589	0.003
553.879	0.0029
554.167	0.0038
554.456	0.0033
554.745	0.0025
555.034	0.0025
555.323	0.0017
555.611	0.0032
555.9	0.0042
556.188	0.0027
556.477	0.0026
556.765	0.0007
557.053	0.0024
557.342	0.003
557.63	0.0032
557.918	0.002
558.206	0.0025
558.494	0.0033
558.782	0.0024
559.069	0.0027
559.357	0.0033
559.645	0.0028
559.932	0.0026
560.22	0.0032
560.507	0.003
560.795	0.0029
561.082	0.0028
561.37	0.0031
561.657	0.0032
561.944	0.0034
562.231	0.0034
562.518	0.0022
562.805	0.0033
563.092	0.0032
563.379	0.0036
563.665	0.003
563.952	0.003
564.239	0.0046
564.525	0.0028
564.811	0.0042
565.098	0.0038
565.384	0.0041
565.67	0.0034
565.957	0.0042
566.243	0.003
566.529	0.004
566.815	0.0046
567.101	0.0022
567.387	0.0032
567.672	0.0023
567.958	0.0032
568.244	0.0037
568.529	0.0025
568.815	0.0028
569.1	0.0036
569.386	0.0023
569.671	0.0023
569.956	0.0024
570.242	0.0021
570.527	0.0035
570.812	0.0032
571.097	0.0034
571.382	0.0034
571.666	0.003
571.951	0.0029
572.236	0.004
572.521	0.0031
572.805	0.0036
573.09	0.0029
573.374	0.0025
573.659	0.003
573.943	0.0031
574.227	0.0023
574.511	0.0036
574.795	0.0038
575.079	0.0028
575.363	0.0028
575.647	0.0038
575.931	0.0034
576.215	0.0038
576.499	0.0024
576.782	0.0032
577.066	0.0031
577.349	0.003
577.633	0.0039
577.916	0.0035
578.2	0.0042
578.483	0.0042
578.766	0.0032
579.049	0.0043
579.332	0.0039
579.615	0.0035
579.898	0.0034
580.181	0.0036
580.464	0.0037
580.746	0.0022
581.029	0.0032
581.312	0.0021
581.594	0.0024
581.877	0.0038
582.159	0.004
582.441	0.0031
582.724	0.0032
583.006	0.0035
583.288	0.002
583.57	0.0026
583.852	0.002
584.134	0.0016
584.416	0.0022
584.697	0.0031
584.979	0.0032
585.261	0.0034
585.542	0.0036
585.824	0.0038
586.105	0.0029
586.387	0.0028
586.668	0.0031
586.949	0.0028
587.231	0.0024
587.512	0.0032
587.793	0.0034
588.074	0.0033
588.355	0.0037
588.636	0.0038
588.916	0.0029
589.197	0.0043
589.478	0.0036
589.758	0.0033
590.039	0.0032
590.319	0.0033
590.6	0.0032
590.88	0.0026
591.16	0.0039
591.441	0.0039
591.721	0.0037
592.001	0.003
592.281	0.0027
592.561	0.0032
592.841	0.0029
593.12	0.0033
593.4	0.0026
593.68	0.0036
593.959	0.0027
594.239	0.0038
594.518	0.0032
594.798	0.0031
595.077	0.0024
595.356	0.0035
595.636	0.003
595.915	0.0035
596.194	0.0037
596.473	0.0026
596.752	0.0027
