Data from 03 0.2 mM BQDS 0.4 mM K2Cr2O7 1 M H2SO4 5 min_Absorbance_17-37-42-840.txt Node
Date: Wed Dec 08 17:37:42 EST 2021
User: kwabilab-user
Spectrometer: HDX00518
Trigger mode: 0
Integration Time (sec): 5.000000E-2
Scans to average: 50
Nonlinearity correction enabled: false
Boxcar width: 0
Storing dark spectrum: false
XAxis mode: Wavelengths
Number of Pixels in Spectrum: 2068
>>>>>Begin Spectral Data<<<<<
195.27	0.2548
195.642	0.1217
196.014	0.1384
196.386	0.1063
196.758	0.0539
197.129	0.044
197.501	0.0681
197.872	0.1058
198.244	0.129
198.615	0.1344
198.986	0.1154
199.357	0.108
199.728	0.1343
200.099	0.1148
200.47	0.124
200.841	0.1232
201.212	0.1237
201.582	0.1158
201.953	0.1337
202.323	0.1189
202.694	0.107
203.064	0.1291
203.434	0.1148
203.804	0.1391
204.174	0.1234
204.544	0.1163
204.914	0.1167
205.284	0.1422
205.653	0.1388
206.023	0.1341
206.393	0.1299
206.762	0.1242
207.131	0.145
207.501	0.1415
207.87	0.1514
208.239	0.1405
208.608	0.1408
208.977	0.1572
209.346	0.1546
209.715	0.1443
210.083	0.1598
210.452	0.155
210.82	0.1753
211.189	0.1712
211.557	0.1499
211.925	0.1696
212.294	0.1911
212.662	0.186
213.03	0.1827
213.398	0.1748
213.766	0.2044
214.133	0.209
214.501	0.2129
214.869	0.2085
215.236	0.2501
215.604	0.2567
215.971	0.2714
216.338	0.2807
216.705	0.3089
217.072	0.3265
217.439	0.3337
217.806	0.3698
218.173	0.386
218.54	0.4259
218.907	0.458
219.273	0.4928
219.64	0.5195
220.006	0.5729
220.373	0.585
220.739	0.6387
221.105	0.6825
221.471	0.7042
221.837	0.7427
222.203	0.7772
222.569	0.8084
222.935	0.843
223.3	0.8604
223.666	0.91
224.031	0.9232
224.397	0.9453
224.762	0.9547
225.127	0.9626
225.493	0.9909
225.858	0.997
226.223	1.0157
226.588	1.0171
226.952	1.0247
227.317	1.0263
227.682	1.0233
228.046	1.0179
228.411	1.0257
228.775	1.0186
229.14	1.0185
229.504	1.0139
229.868	1.0147
230.232	0.9948
230.596	0.992
230.96	0.9902
231.324	0.978
231.688	0.9681
232.052	0.9618
232.415	0.9524
232.779	0.947
233.142	0.9344
233.505	0.927
233.869	0.9154
234.232	0.9059
234.595	0.8956
234.958	0.8868
235.321	0.8769
235.684	0.8676
236.047	0.8573
236.409	0.8495
236.772	0.8381
237.134	0.8335
237.497	0.8184
237.859	0.813
238.222	0.8031
238.584	0.7959
238.946	0.7881
239.308	0.7782
239.67	0.7705
240.032	0.7632
240.393	0.7555
240.755	0.7487
241.117	0.744
241.478	0.7342
241.84	0.7283
242.201	0.7191
242.562	0.7134
242.924	0.7082
243.285	0.7002
243.646	0.6925
244.007	0.6885
244.368	0.6846
244.728	0.6798
245.089	0.6742
245.45	0.669
245.81	0.6652
246.171	0.6604
246.531	0.6523
246.891	0.6496
247.252	0.6445
247.612	0.6419
247.972	0.6358
248.332	0.6342
248.692	0.6292
249.051	0.628
249.411	0.624
249.771	0.619
250.13	0.6145
250.49	0.6145
250.849	0.6109
251.208	0.6069
251.568	0.6046
251.927	0.6023
252.286	0.5994
252.645	0.597
253.004	0.5948
253.363	0.5921
253.721	0.5907
254.08	0.5888
254.439	0.5847
254.797	0.5829
255.155	0.5813
255.514	0.5797
255.872	0.5768
256.23	0.575
256.588	0.5737
256.946	0.5703
257.304	0.5684
257.662	0.5672
258.02	0.5653
258.377	0.5642
258.735	0.5615
259.093	0.5597
259.45	0.5573
259.807	0.5578
260.165	0.5549
260.522	0.5524
260.879	0.5503
261.236	0.5476
261.593	0.5452
261.95	0.543
262.306	0.5429
262.663	0.5402
263.02	0.5379
263.376	0.5353
263.733	0.5329
264.089	0.5322
264.445	0.5301
264.802	0.5271
265.158	0.5242
265.514	0.524
265.87	0.5215
266.226	0.5203
266.581	0.5173
266.937	0.5143
267.293	0.5139
267.648	0.5126
268.004	0.5077
268.359	0.5057
268.714	0.5031
269.07	0.4998
269.425	0.499
269.78	0.4964
270.135	0.4939
270.49	0.4916
270.844	0.4889
271.199	0.4856
271.554	0.4837
271.908	0.4817
272.263	0.4788
272.617	0.4752
272.972	0.4729
273.326	0.4706
273.68	0.4677
274.034	0.4659
274.388	0.4616
274.742	0.4598
275.096	0.4555
275.45	0.4549
275.803	0.4507
276.157	0.4467
276.51	0.445
276.864	0.4418
277.217	0.4395
277.571	0.4346
277.924	0.4316
278.277	0.4296
278.63	0.4255
278.983	0.422
279.336	0.4195
279.688	0.4162
280.041	0.412
280.394	0.4088
280.746	0.4055
281.099	0.402
281.451	0.3974
281.803	0.3947
282.156	0.3922
282.508	0.3887
282.86	0.3847
283.212	0.3815
283.564	0.3771
283.916	0.374
284.267	0.3691
284.619	0.3669
284.971	0.3636
285.322	0.3593
285.673	0.3555
286.025	0.3525
286.376	0.3479
286.727	0.3443
287.078	0.3402
287.429	0.3383
287.78	0.3328
288.131	0.3291
288.482	0.3243
288.833	0.3222
289.183	0.3179
289.534	0.3138
289.884	0.3102
290.235	0.3065
290.585	0.302
290.935	0.2991
291.285	0.2957
291.635	0.2923
291.985	0.2884
292.335	0.2843
292.685	0.2812
293.035	0.2769
293.384	0.2733
293.734	0.2694
294.083	0.2659
294.433	0.2627
294.782	0.2599
295.131	0.2555
295.48	0.2524
295.829	0.2494
296.179	0.2452
296.527	0.242
296.876	0.2389
297.225	0.2364
297.574	0.2317
297.922	0.2286
298.271	0.2264
298.619	0.222
298.968	0.2206
299.316	0.2169
299.664	0.2141
300.012	0.2119
300.36	0.2079
300.708	0.2057
301.056	0.2031
301.404	0.2009
301.752	0.198
302.099	0.1959
302.447	0.1936
302.794	0.1906
303.142	0.1888
303.489	0.1863
303.836	0.1843
304.183	0.1824
304.531	0.1803
304.878	0.1795
305.224	0.1763
305.571	0.1753
305.918	0.1733
306.265	0.1719
306.611	0.1704
306.958	0.1688
307.304	0.1674
307.651	0.1671
307.997	0.165
308.343	0.1636
308.689	0.1629
309.035	0.1619
309.381	0.1611
309.727	0.1596
310.073	0.1592
310.419	0.1579
310.764	0.1571
311.11	0.1571
311.455	0.1566
311.801	0.155
312.146	0.155
312.491	0.154
312.837	0.1542
313.182	0.1542
313.527	0.1534
313.872	0.1533
314.216	0.1527
314.561	0.153
314.906	0.1525
315.251	0.1525
315.595	0.1522
315.94	0.1525
316.284	0.1524
316.628	0.1524
316.972	0.1523
317.317	0.1528
317.661	0.1535
318.005	0.1535
318.348	0.1533
318.692	0.1536
319.036	0.1541
319.38	0.1544
319.723	0.1552
320.067	0.1552
320.41	0.1559
320.754	0.1566
321.097	0.1575
321.44	0.1581
321.783	0.1587
322.126	0.1592
322.469	0.1604
322.812	0.1609
323.155	0.1612
323.498	0.1627
323.84	0.1634
324.183	0.1646
324.525	0.1653
324.868	0.1665
325.21	0.1675
325.552	0.1683
325.894	0.1688
326.236	0.1701
326.578	0.171
326.92	0.1726
327.262	0.1727
327.604	0.1739
327.946	0.175
328.287	0.1763
328.629	0.177
328.97	0.1784
329.312	0.1795
329.653	0.1801
329.994	0.1814
330.335	0.1834
330.676	0.1837
331.017	0.1849
331.358	0.1863
331.699	0.1876
332.04	0.1891
332.38	0.1899
332.721	0.1914
333.061	0.1915
333.402	0.1931
333.742	0.1943
334.083	0.1961
334.423	0.1962
334.763	0.1977
335.103	0.1988
335.443	0.1998
335.783	0.2003
336.123	0.2008
336.462	0.2023
336.802	0.2035
337.141	0.2037
337.481	0.2052
337.82	0.2058
338.16	0.2069
338.499	0.2073
338.838	0.208
339.177	0.2096
339.516	0.21
339.855	0.211
340.194	0.212
340.533	0.2126
340.872	0.2137
341.21	0.2149
341.549	0.2149
341.887	0.2156
342.226	0.2164
342.564	0.216
342.902	0.2165
343.24	0.2168
343.578	0.2172
343.916	0.2181
344.254	0.2172
344.592	0.2175
344.93	0.2182
345.268	0.2185
345.605	0.2182
345.943	0.2179
346.28	0.2185
346.618	0.2185
346.955	0.2188
347.292	0.2185
347.629	0.2192
347.966	0.2193
348.303	0.2192
348.64	0.2191
348.977	0.2188
349.314	0.2189
349.65	0.2189
349.987	0.2185
350.324	0.2184
350.66	0.2174
350.996	0.2178
351.333	0.2169
351.669	0.2161
352.005	0.2158
352.341	0.2153
352.677	0.2139
353.013	0.2133
353.349	0.2131
353.685	0.2116
354.02	0.2114
354.356	0.2102
354.691	0.2092
355.027	0.2081
355.362	0.2065
355.697	0.2059
356.033	0.2051
356.368	0.2041
356.703	0.2034
357.038	0.2025
357.373	0.2018
357.707	0.2021
358.042	0.2006
358.377	0.1998
358.711	0.1984
359.046	0.1978
359.38	0.1956
359.715	0.1953
360.049	0.1948
360.383	0.1932
360.717	0.1927
361.051	0.1903
361.385	0.1897
361.719	0.1871
362.053	0.1865
362.387	0.1843
362.72	0.1825
363.054	0.1808
363.387	0.1798
363.721	0.1792
364.054	0.1765
364.387	0.1751
364.721	0.1741
365.054	0.1726
365.387	0.1701
365.72	0.1689
366.053	0.1672
366.385	0.1657
366.718	0.1649
367.051	0.1628
367.383	0.1616
367.716	0.1606
368.048	0.1596
368.381	0.1586
368.713	0.157
369.045	0.1558
369.377	0.1541
369.709	0.1529
370.041	0.1518
370.373	0.1502
370.705	0.149
371.037	0.1473
371.368	0.1458
371.7	0.1444
372.031	0.1431
372.363	0.1413
372.694	0.1398
373.025	0.1376
373.356	0.1359
373.688	0.1341
374.019	0.1316
374.35	0.1305
374.68	0.1284
375.011	0.1265
375.342	0.1246
375.673	0.1228
376.003	0.121
376.334	0.1199
376.664	0.1184
376.995	0.1171
377.325	0.116
377.655	0.1146
377.985	0.113
378.315	0.112
378.645	0.1104
378.975	0.1091
379.305	0.108
379.635	0.1075
379.964	0.106
380.294	0.1046
380.623	0.1032
380.953	0.1025
381.282	0.1009
381.611	0.0998
381.941	0.0988
382.27	0.0969
382.599	0.0958
382.928	0.095
383.257	0.0935
383.585	0.0926
383.914	0.0916
384.243	0.09
384.571	0.0878
384.9	0.0867
385.228	0.0848
385.557	0.0842
385.885	0.0827
386.213	0.0804
386.541	0.0792
386.869	0.0778
387.197	0.0769
387.525	0.0752
387.853	0.0735
388.181	0.0736
388.508	0.0721
388.836	0.0704
389.164	0.0693
389.491	0.0684
389.818	0.0672
390.146	0.0663
390.473	0.0649
390.8	0.0645
391.127	0.0629
391.454	0.0624
391.781	0.0615
392.108	0.061
392.435	0.0592
392.761	0.058
393.088	0.0575
393.415	0.0571
393.741	0.0565
394.067	0.0561
394.394	0.0555
394.72	0.0545
395.046	0.0535
395.372	0.0524
395.698	0.0517
396.024	0.052
396.35	0.0507
396.676	0.0501
397.001	0.0497
397.327	0.0487
397.653	0.0474
397.978	0.0461
398.303	0.0457
398.629	0.0446
398.954	0.0446
399.279	0.0443
399.604	0.0442
399.929	0.0432
400.254	0.0429
400.579	0.0424
400.904	0.0409
401.229	0.0409
401.553	0.0399
401.878	0.0398
402.202	0.0395
402.527	0.0386
402.851	0.039
403.175	0.0382
403.5	0.0387
403.824	0.038
404.148	0.0376
404.472	0.0377
404.796	0.0366
405.119	0.0366
405.443	0.0366
405.767	0.0354
406.09	0.0358
406.414	0.0362
406.737	0.0354
407.061	0.0356
407.384	0.0357
407.707	0.0352
408.03	0.0355
408.353	0.0352
408.676	0.0351
408.999	0.0345
409.322	0.035
409.645	0.0353
409.968	0.0341
410.29	0.0342
410.613	0.0341
410.935	0.034
411.258	0.0347
411.58	0.0333
411.902	0.0344
412.224	0.0343
412.546	0.0344
412.868	0.0331
413.19	0.034
413.512	0.0342
413.834	0.0341
414.156	0.0344
414.477	0.0339
414.799	0.0338
415.121	0.0345
415.442	0.0345
415.763	0.0345
416.085	0.0341
416.406	0.0344
416.727	0.0346
417.048	0.0342
417.369	0.0348
417.69	0.0342
418.011	0.0341
418.331	0.0341
418.652	0.0346
418.973	0.0345
419.293	0.0347
419.614	0.0349
419.934	0.0346
420.254	0.0351
420.574	0.0339
420.895	0.0346
421.215	0.0341
421.535	0.034
421.855	0.0342
422.174	0.0343
422.494	0.0342
422.814	0.0353
423.134	0.0349
423.453	0.0347
423.773	0.0351
424.092	0.0348
424.411	0.0347
424.731	0.0356
425.05	0.0348
425.369	0.0349
425.688	0.0356
426.007	0.0357
426.326	0.0354
426.644	0.0368
426.963	0.0363
427.282	0.0362
427.6	0.0359
427.919	0.0362
428.237	0.0365
428.556	0.0366
428.874	0.0362
429.192	0.0359
429.51	0.0359
429.828	0.0362
430.146	0.036
430.464	0.0361
430.782	0.0359
431.1	0.0362
431.418	0.0359
431.735	0.0361
432.053	0.0371
432.37	0.0367
432.688	0.0367
433.005	0.0367
433.322	0.0369
433.639	0.0369
433.957	0.0369
434.274	0.0371
434.591	0.0373
434.907	0.0373
435.224	0.0367
435.541	0.037
435.858	0.0377
436.174	0.0371
436.491	0.037
436.807	0.0369
437.124	0.0366
437.44	0.0363
437.756	0.0368
438.072	0.0366
438.388	0.0376
438.704	0.0369
439.02	0.0373
439.336	0.0363
439.652	0.0374
439.968	0.0367
440.283	0.0367
440.599	0.037
440.914	0.0368
441.23	0.0366
441.545	0.0369
441.86	0.0364
442.175	0.0369
442.491	0.0363
442.806	0.0367
443.121	0.0367
443.435	0.0361
443.75	0.0365
444.065	0.0359
444.38	0.0365
444.694	0.0363
445.009	0.037
445.323	0.0368
445.638	0.0365
445.952	0.0366
446.266	0.0362
446.58	0.0362
446.894	0.0368
447.208	0.0372
447.522	0.0363
447.836	0.0353
448.15	0.0356
448.464	0.0355
448.777	0.0356
449.091	0.0355
449.404	0.0356
449.718	0.0358
450.031	0.0352
450.345	0.0347
450.658	0.0352
450.971	0.0349
451.284	0.0345
451.597	0.0359
451.91	0.0361
452.223	0.0346
452.535	0.0356
452.848	0.0351
453.161	0.0348
453.473	0.0352
453.786	0.0348
454.098	0.0346
454.411	0.034
454.723	0.0341
455.035	0.0339
455.347	0.0344
455.659	0.0347
455.971	0.035
456.283	0.0345
456.595	0.0343
456.907	0.0339
457.218	0.0344
457.53	0.0333
457.841	0.0328
458.153	0.0334
458.464	0.033
458.776	0.0321
459.087	0.0321
459.398	0.0329
459.709	0.033
460.02	0.0325
460.331	0.0317
460.642	0.032
460.953	0.0314
461.263	0.0319
461.574	0.0322
461.885	0.0313
462.195	0.032
462.506	0.0318
462.816	0.0309
463.126	0.0303
463.437	0.0308
463.747	0.03
464.057	0.03
464.367	0.0303
464.677	0.0299
464.987	0.0303
465.296	0.0296
465.606	0.0294
465.916	0.0292
466.225	0.0287
466.535	0.0288
466.844	0.0288
467.154	0.0282
467.463	0.0285
467.772	0.0286
468.081	0.028
468.39	0.028
468.699	0.0275
469.008	0.0278
469.317	0.0278
469.626	0.0279
469.935	0.0276
470.243	0.0273
470.552	0.028
470.86	0.0278
471.169	0.0274
471.477	0.0267
471.785	0.0271
472.093	0.0259
472.402	0.0268
472.71	0.0263
473.018	0.0264
473.326	0.0253
473.633	0.0259
473.941	0.0252
474.249	0.0252
474.556	0.0245
474.864	0.0248
475.171	0.0237
475.479	0.0243
475.786	0.025
476.094	0.024
476.401	0.0244
476.708	0.0238
477.015	0.0239
477.322	0.0236
477.629	0.024
477.936	0.0235
478.242	0.0227
478.549	0.0231
478.856	0.0228
479.162	0.0234
479.469	0.0221
479.775	0.0223
480.081	0.0215
480.388	0.022
480.694	0.0215
481	0.0219
481.306	0.0212
481.612	0.0213
481.918	0.0203
482.224	0.0217
482.53	0.0208
482.835	0.0202
483.141	0.0191
483.446	0.0196
483.752	0.0187
484.057	0.019
484.363	0.0183
484.668	0.0181
484.973	0.0185
485.278	0.0181
485.583	0.0178
485.888	0.0173
486.193	0.0174
486.498	0.0172
486.803	0.0178
487.107	0.0177
487.412	0.017
487.717	0.0163
488.021	0.0172
488.325	0.0169
488.63	0.0159
488.934	0.0163
489.238	0.017
489.542	0.0167
489.846	0.0153
490.15	0.0169
490.454	0.016
490.758	0.0157
491.062	0.0153
491.366	0.0153
491.669	0.0157
491.973	0.0149
492.276	0.0143
492.58	0.014
492.883	0.0143
493.186	0.015
493.489	0.0143
493.792	0.015
494.096	0.0136
494.399	0.0138
494.701	0.0143
495.004	0.0136
495.307	0.0131
495.61	0.0133
495.912	0.0128
496.215	0.0124
496.517	0.0124
496.82	0.0122
497.122	0.0124
497.424	0.0115
497.727	0.0123
498.029	0.0118
498.331	0.0127
498.633	0.0124
498.935	0.0127
499.237	0.0123
499.538	0.012
499.84	0.0122
500.142	0.0115
500.443	0.0113
500.745	0.011
501.046	0.0112
501.348	0.0107
501.649	0.0103
501.95	0.0104
502.251	0.0102
502.552	0.0096
502.853	0.0093
503.154	0.0096
503.455	0.0091
503.756	0.0091
504.057	0.0093
504.357	0.0091
504.658	0.0094
504.958	0.0095
505.259	0.0103
505.559	0.0096
505.859	0.0091
506.16	0.009
506.46	0.0089
506.76	0.0093
507.06	0.0091
507.36	0.0089
507.66	0.0088
507.96	0.0099
508.259	0.0083
508.559	0.0076
508.859	0.0076
509.158	0.0078
509.457	0.0073
509.757	0.0093
510.056	0.0072
510.355	0.0068
510.655	0.0061
510.954	0.0072
511.253	0.0069
511.552	0.0074
511.851	0.007
512.149	0.0059
512.448	0.0061
512.747	0.0074
513.045	0.0058
513.344	0.0065
513.642	0.0074
513.941	0.0065
514.239	0.0066
514.537	0.0064
514.836	0.0073
515.134	0.0058
515.432	0.0058
515.73	0.0079
516.028	0.005
516.326	0.0067
516.623	0.0055
516.921	0.005
517.219	0.0055
517.516	0.007
517.814	0.0064
518.111	0.006
518.409	0.0074
518.706	0.0063
519.003	0.0058
519.3	0.0053
519.597	0.0048
519.894	0.0059
520.191	0.0067
520.488	0.0059
520.785	0.0048
521.082	0.0052
521.378	0.0045
521.675	0.0046
521.971	0.0056
522.268	0.005
522.564	0.0053
522.861	0.005
523.157	0.0041
523.453	0.0059
523.749	0.0054
524.045	0.0058
524.341	0.0047
524.637	0.0042
524.933	0.0042
525.229	0.0049
525.524	0.0046
525.82	0.005
526.115	0.0047
526.411	0.0048
526.706	0.0045
527.002	0.0048
527.297	0.003
527.592	0.0059
527.887	0.0053
528.182	0.0054
528.477	0.0055
528.772	0.0049
529.067	0.0043
529.362	0.0047
529.657	0.0048
529.951	0.0042
530.246	0.0033
530.54	0.0024
530.835	0.0033
531.129	0.0023
531.423	0.0043
531.718	0.0035
532.012	0.0044
532.306	0.0037
532.6	0.0035
532.894	0.0036
533.188	0.0042
533.482	0.0028
533.775	0.0046
534.069	0.0022
534.363	0.0026
534.656	0.0027
534.95	0.002
535.243	0.0028
535.536	0.003
535.83	0.0029
536.123	0.0023
536.416	0.004
536.709	0.0035
537.002	0.0046
537.295	0.0035
537.588	0.0038
537.881	0.0031
538.173	0.0017
538.466	0.0025
538.759	0.0026
539.051	0.0019
539.344	0.0029
539.636	0.0027
539.928	0.0027
540.22	0.0029
540.513	0.0031
540.805	0.0038
541.097	0.0025
541.389	0.0028
541.681	0.0026
541.972	0.0026
542.264	0.0025
542.556	0.0026
542.847	0.0024
543.139	0.0031
543.431	0.0047
543.722	0.0036
544.013	0.0037
544.305	0.0042
544.596	0.004
544.887	0.0032
545.178	0.0031
545.469	0.0023
545.76	0.0027
546.051	0.0042
546.342	0.0034
546.632	0.0015
546.923	0.0033
547.214	0.0033
547.504	0.0028
547.795	0.0034
548.085	0.0031
548.375	0.0032
548.666	0.0028
548.956	0.0016
549.246	0.0034
549.536	0.0031
549.826	0.0038
550.116	0.004
550.406	0.0029
550.695	0.0037
550.985	0.0037
551.275	0.0037
551.564	0.0039
551.854	0.0038
552.143	0.0033
552.433	0.0034
552.722	0.0032
553.011	0.0033
553.3	0.0039
553.589	0.0032
553.879	0.0032
554.167	0.004
554.456	0.0031
554.745	0.0021
555.034	0.0031
555.323	0.0014
555.611	0.0024
555.9	0.0034
556.188	0.0031
556.477	0.0025
556.765	0.0028
557.053	0.0024
557.342	0.0029
557.63	0.0026
557.918	0.0025
558.206	0.0025
558.494	0.0038
558.782	0.0033
559.069	0.0033
559.357	0.0028
559.645	0.0031
559.932	0.0043
560.22	0.0031
560.507	0.0037
560.795	0.0032
561.082	0.0025
561.37	0.0027
561.657	0.0034
561.944	0.0034
562.231	0.0032
562.518	0.0019
562.805	0.0034
563.092	0.0047
563.379	0.0033
563.665	0.0033
563.952	0.0027
564.239	0.0037
564.525	0.0037
564.811	0.0044
565.098	0.0035
565.384	0.0038
565.67	0.004
565.957	0.0036
566.243	0.0038
566.529	0.004
566.815	0.0052
567.101	0.0036
567.387	0.0034
567.672	0.0025
567.958	0.0028
568.244	0.0034
568.529	0.0035
568.815	0.0021
569.1	0.0036
569.386	0.0032
569.671	0.002
569.956	0.0027
570.242	0.0022
570.527	0.003
570.812	0.0025
571.097	0.0032
571.382	0.0027
571.666	0.0026
571.951	0.0026
572.236	0.0026
572.521	0.0023
572.805	0.0028
573.09	0.0027
573.374	0.0024
573.659	0.0023
573.943	0.0029
574.227	0.0022
574.511	0.0032
574.795	0.0026
575.079	0.0022
575.363	0.0029
575.647	0.0028
575.931	0.0029
576.215	0.0026
576.499	0.0017
576.782	0.0026
577.066	0.0016
577.349	0.0028
577.633	0.0036
577.916	0.0033
578.2	0.003
578.483	0.0024
578.766	0.0021
579.049	0.0029
579.332	0.0023
579.615	0.0023
579.898	0.0026
580.181	0.0025
580.464	0.0028
580.746	0.0021
581.029	0.003
581.312	0.0024
581.594	0.0023
581.877	0.0022
582.159	0.0023
582.441	0.0023
582.724	0.0023
583.006	0.0019
583.288	0.002
583.57	0.0012
583.852	0.002
584.134	0.0021
584.416	0.003
584.697	0.0026
584.979	0.0029
585.261	0.0025
585.542	0.0017
585.824	0.0021
586.105	0.0028
586.387	0.0022
586.668	0.0023
586.949	0.0024
587.231	0.0021
587.512	0.0027
587.793	0.0025
588.074	0.0025
588.355	0.0026
588.636	0.0037
588.916	0.0023
589.197	0.003
589.478	0.0033
589.758	0.0027
590.039	0.0026
590.319	0.003
590.6	0.0023
590.88	0.0029
591.16	0.0028
591.441	0.003
591.721	0.0029
592.001	0.0032
592.281	0.0023
592.561	0.0039
592.841	0.0039
593.12	0.0027
593.4	0.0016
593.68	0.0024
593.959	0.0024
594.239	0.0032
594.518	0.0025
594.798	0.0027
595.077	0.0042
595.356	0.0029
595.636	0.0029
595.915	0.0029
596.194	0.0034
596.473	0.0034
