Data from 03 0.2 mM BQDS 0.4 mM K2Cr2O7 1 M H2SO4 5 min_Absorbance_05-52-42-621.txt Node
Date: Wed Dec 08 05:52:42 EST 2021
User: kwabilab-user
Spectrometer: HDX00518
Trigger mode: 0
Integration Time (sec): 5.000000E-2
Scans to average: 50
Nonlinearity correction enabled: false
Boxcar width: 0
Storing dark spectrum: false
XAxis mode: Wavelengths
Number of Pixels in Spectrum: 2068
>>>>>Begin Spectral Data<<<<<
195.27	0.1804
195.642	0.0098
196.014	0.0817
196.386	0.11
196.758	0.0507
197.129	0.0516
197.501	0.0809
197.872	0.1188
198.244	0.1359
198.615	0.1381
198.986	0.1242
199.357	0.1033
199.728	0.1342
200.099	0.1217
200.47	0.1342
200.841	0.1091
201.212	0.1102
201.582	0.1181
201.953	0.1286
202.323	0.1218
202.694	0.1059
203.064	0.1336
203.434	0.108
203.804	0.1392
204.174	0.1378
204.544	0.1176
204.914	0.127
205.284	0.1175
205.653	0.1439
206.023	0.1306
206.393	0.1199
206.762	0.1357
207.131	0.1392
207.501	0.1424
207.87	0.1374
208.239	0.1404
208.608	0.1276
208.977	0.1345
209.346	0.1553
209.715	0.1369
210.083	0.1433
210.452	0.1601
210.82	0.1688
211.189	0.1815
211.557	0.1457
211.925	0.1727
212.294	0.1858
212.662	0.1883
213.03	0.1917
213.398	0.169
213.766	0.1954
214.133	0.2163
214.501	0.2176
214.869	0.224
215.236	0.2581
215.604	0.2538
215.971	0.2666
216.338	0.279
216.705	0.3103
217.072	0.3299
217.439	0.3379
217.806	0.3861
218.173	0.3963
218.54	0.4178
218.907	0.4638
219.273	0.5007
219.64	0.5212
220.006	0.5664
220.373	0.5965
220.739	0.6479
221.105	0.6715
221.471	0.7101
221.837	0.7333
222.203	0.777
222.569	0.8036
222.935	0.8363
223.3	0.862
223.666	0.8893
224.031	0.9128
224.397	0.9226
224.762	0.9385
225.127	0.9587
225.493	0.9806
225.858	0.986
226.223	0.9975
226.588	0.9947
226.952	1.0042
227.317	1.0123
227.682	1.0056
228.046	0.9943
228.411	0.9996
228.775	0.9954
229.14	0.9926
229.504	0.9859
229.868	0.9852
230.232	0.9736
230.596	0.968
230.96	0.9634
231.324	0.9502
231.688	0.9429
232.052	0.9337
232.415	0.9177
232.779	0.9221
233.142	0.9112
233.505	0.9032
233.869	0.8926
234.232	0.8837
234.595	0.8681
234.958	0.8599
235.321	0.8518
235.684	0.8397
236.047	0.8329
236.409	0.8229
236.772	0.8137
237.134	0.8051
237.497	0.7912
237.859	0.7873
238.222	0.7813
238.584	0.7689
238.946	0.7614
239.308	0.7541
239.67	0.7464
240.032	0.7419
240.393	0.7367
240.755	0.7262
241.117	0.7228
241.478	0.7168
241.84	0.7074
242.201	0.6998
242.562	0.6954
242.924	0.6883
243.285	0.6824
243.646	0.6767
244.007	0.6763
244.368	0.6702
244.728	0.6636
245.089	0.6612
245.45	0.6586
245.81	0.6525
246.171	0.6469
246.531	0.6428
246.891	0.6399
247.252	0.6384
247.612	0.6332
247.972	0.6313
248.332	0.6296
248.692	0.6247
249.051	0.6234
249.411	0.6201
249.771	0.6172
250.13	0.6151
250.49	0.6121
250.849	0.6126
251.208	0.6111
251.568	0.6077
251.927	0.6056
252.286	0.6057
252.645	0.6023
253.004	0.5997
253.363	0.5983
253.721	0.5992
254.08	0.5949
254.439	0.5941
254.797	0.5934
255.155	0.5895
255.514	0.5892
255.872	0.588
256.23	0.5867
256.588	0.5863
256.946	0.5829
257.304	0.584
257.662	0.5827
258.02	0.5815
258.377	0.5788
258.735	0.5776
259.093	0.5763
259.45	0.5758
259.807	0.5753
260.165	0.5734
260.522	0.5711
260.879	0.5696
261.236	0.5676
261.593	0.5667
261.95	0.5646
262.306	0.5648
262.663	0.5609
263.02	0.5612
263.376	0.5588
263.733	0.5574
264.089	0.5555
264.445	0.5548
264.802	0.5507
265.158	0.5501
265.514	0.5471
265.87	0.5462
266.226	0.5431
266.581	0.5412
266.937	0.5382
267.293	0.5373
267.648	0.5358
268.004	0.5308
268.359	0.5285
268.714	0.5276
269.07	0.5254
269.425	0.5224
269.78	0.5197
270.135	0.5169
270.49	0.5164
270.844	0.5124
271.199	0.5108
271.554	0.5059
271.908	0.5035
272.263	0.5013
272.617	0.4968
272.972	0.494
273.326	0.4909
273.68	0.4879
274.034	0.4837
274.388	0.4816
274.742	0.4793
275.096	0.4759
275.45	0.4728
275.803	0.4687
276.157	0.4654
276.51	0.4617
276.864	0.4577
277.217	0.4547
277.571	0.449
277.924	0.4459
278.277	0.4436
278.63	0.439
278.983	0.4342
279.336	0.4319
279.688	0.4287
280.041	0.4239
280.394	0.4196
280.746	0.4172
281.099	0.4108
281.451	0.4075
281.803	0.4037
282.156	0.4001
282.508	0.397
282.86	0.392
283.212	0.3885
283.564	0.384
283.916	0.3802
284.267	0.3761
284.619	0.3725
284.971	0.3685
285.322	0.3653
285.673	0.3613
286.025	0.3582
286.376	0.3532
286.727	0.3489
287.078	0.3447
287.429	0.3413
287.78	0.3373
288.131	0.3334
288.482	0.3289
288.833	0.3269
289.183	0.3229
289.534	0.3194
289.884	0.3135
290.235	0.311
290.585	0.3066
290.935	0.3027
291.285	0.2993
291.635	0.2953
291.985	0.2915
292.335	0.2876
292.685	0.2841
293.035	0.2803
293.384	0.277
293.734	0.2729
294.083	0.2694
294.433	0.2652
294.782	0.2624
295.131	0.2589
295.48	0.256
295.829	0.2521
296.179	0.2476
296.527	0.2446
296.876	0.2416
297.225	0.2393
297.574	0.2353
297.922	0.2326
298.271	0.2284
298.619	0.2256
298.968	0.2228
299.316	0.2196
299.664	0.2172
300.012	0.2146
300.36	0.2107
300.708	0.2087
301.056	0.206
301.404	0.2034
301.752	0.201
302.099	0.1985
302.447	0.1963
302.794	0.1942
303.142	0.1918
303.489	0.1895
303.836	0.1868
304.183	0.1853
304.531	0.1836
304.878	0.1816
305.224	0.1799
305.571	0.1781
305.918	0.1766
306.265	0.1744
306.611	0.173
306.958	0.1723
307.304	0.1704
307.651	0.1694
307.997	0.168
308.343	0.1669
308.689	0.1658
309.035	0.165
309.381	0.1642
309.727	0.1625
310.073	0.1628
310.419	0.1615
310.764	0.1614
311.11	0.1608
311.455	0.1596
311.801	0.1594
312.146	0.1588
312.491	0.1585
312.837	0.1584
313.182	0.1583
313.527	0.1575
313.872	0.1571
314.216	0.1578
314.561	0.1572
314.906	0.157
315.251	0.1571
315.595	0.1572
315.94	0.1569
316.284	0.1574
316.628	0.1571
316.972	0.1571
317.317	0.1582
317.661	0.1584
318.005	0.1583
318.348	0.1589
318.692	0.159
319.036	0.16
319.38	0.1604
319.723	0.1603
320.067	0.1615
320.41	0.1616
320.754	0.1624
321.097	0.163
321.44	0.1646
321.783	0.1646
322.126	0.1659
322.469	0.1671
322.812	0.1678
323.155	0.1685
323.498	0.1689
323.84	0.1705
324.183	0.1717
324.525	0.1726
324.868	0.1738
325.21	0.1749
325.552	0.176
325.894	0.1768
326.236	0.178
326.578	0.1788
326.92	0.1804
327.262	0.1813
327.604	0.1828
327.946	0.1845
328.287	0.1851
328.629	0.1862
328.97	0.1871
329.312	0.1889
329.653	0.1899
329.994	0.1917
330.335	0.1928
330.676	0.194
331.017	0.1945
331.358	0.1965
331.699	0.198
332.04	0.1994
332.38	0.2002
332.721	0.2022
333.061	0.2028
333.402	0.2038
333.742	0.2056
334.083	0.2076
334.423	0.2079
334.763	0.2091
335.103	0.2102
335.443	0.2114
335.783	0.2119
336.123	0.2128
336.462	0.2144
336.802	0.2155
337.141	0.2162
337.481	0.2176
337.82	0.2179
338.16	0.2194
338.499	0.22
338.838	0.2208
339.177	0.2231
339.516	0.2227
339.855	0.2245
340.194	0.2252
340.533	0.2261
340.872	0.2274
341.21	0.2284
341.549	0.2283
341.887	0.2302
342.226	0.2297
342.564	0.2302
342.902	0.2305
343.24	0.2313
343.578	0.2312
343.916	0.2316
344.254	0.2322
344.592	0.2318
344.93	0.2328
345.268	0.2331
345.605	0.2331
345.943	0.2329
346.28	0.2331
346.618	0.2329
346.955	0.2335
347.292	0.2338
347.629	0.2342
347.966	0.2349
348.303	0.2338
348.64	0.2342
348.977	0.2336
349.314	0.2339
349.65	0.2349
349.987	0.2345
350.324	0.2335
350.66	0.2334
350.996	0.2336
351.333	0.232
351.669	0.2313
352.005	0.231
352.341	0.2303
352.677	0.2297
353.013	0.2278
353.349	0.2279
353.685	0.2263
354.02	0.226
354.356	0.2249
354.691	0.2234
355.027	0.2231
355.362	0.2213
355.697	0.2206
356.033	0.22
356.368	0.219
356.703	0.2183
357.038	0.2183
357.373	0.2176
357.707	0.2158
358.042	0.2154
358.377	0.2141
358.711	0.213
359.046	0.2118
359.38	0.2109
359.715	0.2095
360.049	0.2089
360.383	0.2084
360.717	0.2071
361.051	0.2049
361.385	0.2037
361.719	0.202
362.053	0.2008
362.387	0.1987
362.72	0.1968
363.054	0.195
363.387	0.1934
363.721	0.1925
364.054	0.1896
364.387	0.1884
364.721	0.1876
365.054	0.1852
365.387	0.1833
365.72	0.182
366.053	0.1809
366.385	0.1789
366.718	0.1781
367.051	0.1766
367.383	0.1746
367.716	0.1732
368.048	0.1724
368.381	0.1707
368.713	0.1695
369.045	0.1687
369.377	0.1671
369.709	0.1654
370.041	0.1642
370.373	0.1631
370.705	0.1612
371.037	0.1594
371.368	0.158
371.7	0.1568
372.031	0.1553
372.363	0.153
372.694	0.1515
373.025	0.1503
373.356	0.1478
373.688	0.1455
374.019	0.1433
374.35	0.1423
374.68	0.1404
375.011	0.1373
375.342	0.136
375.673	0.1346
376.003	0.1324
376.334	0.1304
376.664	0.1293
376.995	0.1279
377.325	0.1265
377.655	0.1255
377.985	0.1243
378.315	0.1231
378.645	0.121
378.975	0.1187
379.305	0.1185
379.635	0.1172
379.964	0.1157
380.294	0.1148
380.623	0.1136
380.953	0.1124
381.282	0.1114
381.611	0.1099
381.941	0.1081
382.27	0.1068
382.599	0.1053
382.928	0.1039
383.257	0.1031
383.585	0.1017
383.914	0.1
384.243	0.0988
384.571	0.0972
384.9	0.0947
385.228	0.0932
385.557	0.0926
385.885	0.0909
386.213	0.0891
386.541	0.0883
386.869	0.086
387.197	0.0841
387.525	0.0828
387.853	0.0817
388.181	0.0806
388.508	0.0796
388.836	0.0783
389.164	0.0771
389.491	0.0762
389.818	0.075
390.146	0.0738
390.473	0.0722
390.8	0.0716
391.127	0.0704
391.454	0.0699
391.781	0.0686
392.108	0.0674
392.435	0.0663
392.761	0.0652
393.088	0.0639
393.415	0.0645
393.741	0.0636
394.067	0.0627
394.394	0.0624
394.72	0.0614
395.046	0.0603
395.372	0.0588
395.698	0.0579
396.024	0.0577
396.35	0.057
396.676	0.0562
397.001	0.0561
397.327	0.0542
397.653	0.0536
397.978	0.0527
398.303	0.0519
398.629	0.051
398.954	0.0506
399.279	0.0501
399.604	0.0497
399.929	0.0489
400.254	0.0483
400.579	0.0476
400.904	0.0465
401.229	0.046
401.553	0.045
401.878	0.0443
402.202	0.0451
402.527	0.0444
402.851	0.044
403.175	0.043
403.5	0.0431
403.824	0.043
404.148	0.0423
404.472	0.0422
404.796	0.0412
405.119	0.0411
405.443	0.0405
405.767	0.0401
406.09	0.04
406.414	0.0398
406.737	0.0401
407.061	0.04
407.384	0.0404
407.707	0.0394
408.03	0.0397
408.353	0.0396
408.676	0.0393
408.999	0.0388
409.322	0.0391
409.645	0.039
409.968	0.0384
410.29	0.0386
410.613	0.0385
410.935	0.0374
411.258	0.0385
411.58	0.0382
411.902	0.0386
412.224	0.0386
412.546	0.0384
412.868	0.0376
413.19	0.0382
413.512	0.0378
413.834	0.0383
414.156	0.0381
414.477	0.0379
414.799	0.0379
415.121	0.0386
415.442	0.0382
415.763	0.0387
416.085	0.0385
416.406	0.0383
416.727	0.038
417.048	0.0384
417.369	0.038
417.69	0.0382
418.011	0.0383
418.331	0.038
418.652	0.0385
418.973	0.0387
419.293	0.038
419.614	0.0386
419.934	0.0383
420.254	0.0382
420.574	0.038
420.895	0.0388
421.215	0.0378
421.535	0.0378
421.855	0.0381
422.174	0.0385
422.494	0.0383
422.814	0.0389
423.134	0.0383
423.453	0.0392
423.773	0.0383
424.092	0.0384
424.411	0.0388
424.731	0.0391
425.05	0.0387
425.369	0.0388
425.688	0.0389
426.007	0.039
426.326	0.0396
426.644	0.0398
426.963	0.0396
427.282	0.0401
427.6	0.0399
427.919	0.0396
428.237	0.0402
428.556	0.0402
428.874	0.0397
429.192	0.0394
429.51	0.0402
429.828	0.0396
430.146	0.0398
430.464	0.0398
430.782	0.04
431.1	0.0401
431.418	0.0395
431.735	0.0398
432.053	0.04
432.37	0.0401
432.688	0.0402
433.005	0.0403
433.322	0.0404
433.639	0.0401
433.957	0.0406
434.274	0.0408
434.591	0.0403
434.907	0.041
435.224	0.0404
435.541	0.041
435.858	0.0418
436.174	0.0411
436.491	0.0408
436.807	0.0411
437.124	0.0398
437.44	0.0399
437.756	0.0399
438.072	0.0403
438.388	0.0411
438.704	0.041
439.02	0.0408
439.336	0.0401
439.652	0.0406
439.968	0.0404
440.283	0.0403
440.599	0.0404
440.914	0.041
441.23	0.0398
441.545	0.0408
441.86	0.0399
442.175	0.0404
442.491	0.0403
442.806	0.0396
443.121	0.0406
443.435	0.0398
443.75	0.0401
444.065	0.0398
444.38	0.0399
444.694	0.0399
445.009	0.0399
445.323	0.0397
445.638	0.0403
445.952	0.0405
446.266	0.0401
446.58	0.0403
446.894	0.0403
447.208	0.0406
447.522	0.04
447.836	0.0387
448.15	0.0392
448.464	0.0387
448.777	0.0391
449.091	0.0383
449.404	0.0395
449.718	0.0396
450.031	0.0388
450.345	0.0385
450.658	0.0384
450.971	0.0384
451.284	0.0384
451.597	0.0387
451.91	0.0389
452.223	0.0384
452.535	0.0391
452.848	0.0375
453.161	0.0384
453.473	0.0386
453.786	0.0389
454.098	0.0375
454.411	0.0385
454.723	0.0375
455.035	0.038
455.347	0.0387
455.659	0.0379
455.971	0.0379
456.283	0.0376
456.595	0.0367
456.907	0.0373
457.218	0.0378
457.53	0.0375
457.841	0.0363
458.153	0.0361
458.464	0.0359
458.776	0.0354
459.087	0.035
459.398	0.0359
459.709	0.0355
460.02	0.0356
460.331	0.0353
460.642	0.0347
460.953	0.0349
461.263	0.0352
461.574	0.0348
461.885	0.0346
462.195	0.0345
462.506	0.0344
462.816	0.0348
463.126	0.0336
463.437	0.0341
463.747	0.0329
464.057	0.0332
464.367	0.033
464.677	0.0332
464.987	0.0334
465.296	0.0321
465.606	0.0323
465.916	0.0321
466.225	0.0319
466.535	0.0318
466.844	0.0316
467.154	0.031
467.463	0.0309
467.772	0.0317
468.081	0.0313
468.39	0.0312
468.699	0.0313
469.008	0.0312
469.317	0.0302
469.626	0.0302
469.935	0.0308
470.243	0.0303
470.552	0.0306
470.86	0.0302
471.169	0.0292
471.477	0.0298
471.785	0.03
472.093	0.0302
472.402	0.029
472.71	0.0286
473.018	0.0282
473.326	0.0279
473.633	0.0284
473.941	0.0283
474.249	0.0277
474.556	0.0286
474.864	0.0265
475.171	0.0266
475.479	0.0272
475.786	0.0272
476.094	0.0266
476.401	0.0268
476.708	0.0266
477.015	0.0267
477.322	0.026
477.629	0.0265
477.936	0.026
478.242	0.0264
478.549	0.0257
478.856	0.0248
479.162	0.0249
479.469	0.0254
479.775	0.0242
480.081	0.0237
480.388	0.0244
480.694	0.024
481	0.0239
481.306	0.0241
481.612	0.0236
481.918	0.0231
482.224	0.0236
482.53	0.0227
482.835	0.0222
483.141	0.0217
483.446	0.022
483.752	0.0222
484.057	0.0208
484.363	0.0212
484.668	0.0203
484.973	0.0205
485.278	0.0207
485.583	0.0202
485.888	0.02
486.193	0.0202
486.498	0.0199
486.803	0.0196
487.107	0.0204
487.412	0.0189
487.717	0.0196
488.021	0.0192
488.325	0.0187
488.63	0.0178
488.934	0.0183
489.238	0.019
489.542	0.0185
489.846	0.0175
490.15	0.0183
490.454	0.0184
490.758	0.0186
491.062	0.0175
491.366	0.017
491.669	0.0171
491.973	0.0161
492.276	0.0168
492.58	0.015
492.883	0.0167
493.186	0.0165
493.489	0.0158
493.792	0.0166
494.096	0.0163
494.399	0.0169
494.701	0.016
495.004	0.0153
495.307	0.0151
495.61	0.0149
495.912	0.0151
496.215	0.0145
496.517	0.0141
496.82	0.014
497.122	0.0137
497.424	0.0138
497.727	0.0139
498.029	0.014
498.331	0.0144
498.633	0.0134
498.935	0.0134
499.237	0.0137
499.538	0.0134
499.84	0.0132
500.142	0.0133
500.443	0.0134
500.745	0.0125
501.046	0.0134
501.348	0.0121
501.649	0.0121
501.95	0.0113
502.251	0.0123
502.552	0.0102
502.853	0.0106
503.154	0.0109
503.455	0.0108
503.756	0.0112
504.057	0.0107
504.357	0.0109
504.658	0.0107
504.958	0.011
505.259	0.0116
505.559	0.0113
505.859	0.0104
506.16	0.0107
506.46	0.0111
506.76	0.0106
507.06	0.0095
507.36	0.0104
507.66	0.0103
507.96	0.0105
508.259	0.0094
508.559	0.0094
508.859	0.0096
509.158	0.0092
509.457	0.0092
509.757	0.0105
510.056	0.0089
510.355	0.0089
510.655	0.0076
510.954	0.0092
511.253	0.0087
511.552	0.0085
511.851	0.0074
512.149	0.0074
512.448	0.0076
512.747	0.0087
513.045	0.0077
513.344	0.0079
513.642	0.0076
513.941	0.008
514.239	0.0082
514.537	0.0076
514.836	0.0082
515.134	0.0075
515.432	0.0078
515.73	0.0079
516.028	0.0068
516.326	0.0071
516.623	0.0069
516.921	0.0067
517.219	0.0076
517.516	0.0071
517.814	0.0066
518.111	0.0068
518.409	0.0082
518.706	0.0069
519.003	0.0068
519.3	0.0053
519.597	0.006
519.894	0.0069
520.191	0.0068
520.488	0.0057
520.785	0.0053
521.082	0.006
521.378	0.0058
521.675	0.0048
521.971	0.0053
522.268	0.0059
522.564	0.006
522.861	0.0053
523.157	0.0045
523.453	0.0058
523.749	0.0059
524.045	0.0064
524.341	0.0055
524.637	0.0051
524.933	0.0047
525.229	0.0061
525.524	0.0051
525.82	0.006
526.115	0.005
526.411	0.0049
526.706	0.005
527.002	0.0049
527.297	0.0043
527.592	0.0061
527.887	0.0059
528.182	0.005
528.477	0.0058
528.772	0.0055
529.067	0.0053
529.362	0.0048
529.657	0.0043
529.951	0.0052
530.246	0.0034
530.54	0.0032
530.835	0.0038
531.129	0.0031
531.423	0.0048
531.718	0.0042
532.012	0.0037
532.306	0.0038
532.6	0.0041
532.894	0.0035
533.188	0.005
533.482	0.0033
533.775	0.0047
534.069	0.0047
534.363	0.0028
534.656	0.0028
534.95	0.0039
535.243	0.0038
535.536	0.004
535.83	0.0048
536.123	0.0025
536.416	0.004
536.709	0.0039
537.002	0.0038
537.295	0.0032
537.588	0.0041
537.881	0.0041
538.173	0.0032
538.466	0.0028
538.759	0.0027
539.051	0.0027
539.344	0.0034
539.636	0.0036
539.928	0.0019
540.22	0.0033
540.513	0.004
540.805	0.0029
541.097	0.0037
541.389	0.0028
541.681	0.0023
541.972	0.0041
542.264	0.0019
542.556	0.0032
542.847	0.0032
543.139	0.0041
543.431	0.0046
543.722	0.0037
544.013	0.0057
544.305	0.0052
544.596	0.0052
544.887	0.0036
545.178	0.0038
545.469	0.0035
545.76	0.0023
546.051	0.0033
546.342	0.0038
546.632	0.0034
546.923	0.0033
547.214	0.0035
547.504	0.0036
547.795	0.0036
548.085	0.0035
548.375	0.003
548.666	0.0035
548.956	0.0024
549.246	0.0032
549.536	0.0021
549.826	0.0038
550.116	0.0037
550.406	0.0042
550.695	0.0043
550.985	0.0034
551.275	0.0042
551.564	0.0034
551.854	0.0047
552.143	0.0038
552.433	0.004
552.722	0.0032
553.011	0.0038
553.3	0.0048
553.589	0.0043
553.879	0.0036
554.167	0.0033
554.456	0.0035
554.745	0.0033
555.034	0.0024
555.323	0.0026
555.611	0.0033
555.9	0.0032
556.188	0.0033
556.477	0.0029
556.765	0.0034
557.053	0.0033
557.342	0.0036
557.63	0.0038
557.918	0.0035
558.206	0.0035
558.494	0.0038
558.782	0.0025
559.069	0.0036
559.357	0.0037
559.645	0.0032
559.932	0.0036
560.22	0.0039
560.507	0.004
560.795	0.0031
561.082	0.0036
561.37	0.0033
561.657	0.0033
561.944	0.0028
562.231	0.0025
562.518	0.0023
562.805	0.0033
563.092	0.004
563.379	0.0036
563.665	0.0036
563.952	0.0035
564.239	0.0034
564.525	0.0038
564.811	0.0052
565.098	0.004
565.384	0.0043
565.67	0.0042
565.957	0.0035
566.243	0.0028
566.529	0.0046
566.815	0.0047
567.101	0.0032
567.387	0.0025
567.672	0.003
567.958	0.0033
568.244	0.0037
568.529	0.0026
568.815	0.0027
569.1	0.0034
569.386	0.003
569.671	0.0033
569.956	0.0033
570.242	0.0029
570.527	0.0046
570.812	0.0038
571.097	0.0034
571.382	0.0036
571.666	0.0031
571.951	0.0031
572.236	0.0038
572.521	0.0026
572.805	0.0033
573.09	0.0028
573.374	0.0029
573.659	0.0024
573.943	0.0034
574.227	0.0031
574.511	0.0039
574.795	0.0035
575.079	0.0031
575.363	0.0028
575.647	0.0032
575.931	0.0034
576.215	0.004
576.499	0.0029
576.782	0.0035
577.066	0.0029
577.349	0.0025
577.633	0.0038
577.916	0.0035
578.2	0.0036
578.483	0.0033
578.766	0.0024
579.049	0.004
579.332	0.0033
579.615	0.0033
579.898	0.0036
580.181	0.0034
580.464	0.0029
580.746	0.003
581.029	0.0024
581.312	0.0022
581.594	0.0026
581.877	0.003
582.159	0.003
582.441	0.0038
582.724	0.0029
583.006	0.0024
583.288	0.0022
583.57	0.0018
583.852	0.0022
584.134	0.0022
584.416	0.0039
584.697	0.0028
584.979	0.003
585.261	0.0029
585.542	0.0025
585.824	0.0029
586.105	0.0039
586.387	0.0027
586.668	0.0035
586.949	0.003
587.231	0.0022
587.512	0.0032
587.793	0.0025
588.074	0.003
588.355	0.0029
588.636	0.0034
588.916	0.0035
589.197	0.0039
589.478	0.0036
589.758	0.0031
590.039	0.0031
590.319	0.0023
590.6	0.0029
590.88	0.0022
591.16	0.0034
591.441	0.0032
591.721	0.0039
592.001	0.0029
592.281	0.0027
592.561	0.0034
592.841	0.0038
593.12	0.0036
593.4	0.0023
593.68	0.0026
593.959	0.0026
594.239	0.0036
594.518	0.0022
594.798	0.0037
595.077	0.0035
595.356	0.003
595.636	0.0028
595.915	0.0035
596.194	0.003
596.473	0.0029
