Data from 03 0.2 mM BQDS 0.4 mM K2Cr2O7 1 M H2SO4 5 min_Absorbance_02-47-42-390.txt Node
Date: Wed Dec 08 02:47:42 EST 2021
User: kwabilab-user
Spectrometer: HDX00518
Trigger mode: 0
Integration Time (sec): 5.000000E-2
Scans to average: 50
Nonlinearity correction enabled: false
Boxcar width: 0
Storing dark spectrum: false
XAxis mode: Wavelengths
Number of Pixels in Spectrum: 2068
>>>>>Begin Spectral Data<<<<<
195.27	0.4545
195.642	0.2362
196.014	0.1761
196.386	0.1951
196.758	0.0907
197.129	0.061
197.501	0.0776
197.872	0.1212
198.244	0.1328
198.615	0.141
198.986	0.1346
199.357	0.1185
199.728	0.1513
200.099	0.1254
200.47	0.1353
200.841	0.1432
201.212	0.1315
201.582	0.1349
201.953	0.1393
202.323	0.1338
202.694	0.1266
203.064	0.1476
203.434	0.1205
203.804	0.1464
204.174	0.1407
204.544	0.1361
204.914	0.1242
205.284	0.1482
205.653	0.1406
206.023	0.1517
206.393	0.1448
206.762	0.1357
207.131	0.1486
207.501	0.1555
207.87	0.1612
208.239	0.151
208.608	0.1293
208.977	0.176
209.346	0.172
209.715	0.1622
210.083	0.1652
210.452	0.1845
210.82	0.1699
211.189	0.1866
211.557	0.1417
211.925	0.1843
212.294	0.1948
212.662	0.1881
213.03	0.1958
213.398	0.1802
213.766	0.2047
214.133	0.2244
214.501	0.2192
214.869	0.2257
215.236	0.251
215.604	0.2565
215.971	0.2624
216.338	0.291
216.705	0.3141
217.072	0.3295
217.439	0.3489
217.806	0.3887
218.173	0.3912
218.54	0.408
218.907	0.472
219.273	0.4971
219.64	0.5417
220.006	0.5751
220.373	0.6065
220.739	0.6354
221.105	0.6791
221.471	0.7131
221.837	0.7469
222.203	0.7924
222.569	0.8158
222.935	0.8485
223.3	0.8672
223.666	0.896
224.031	0.929
224.397	0.9359
224.762	0.9441
225.127	0.9802
225.493	0.9768
225.858	0.9794
226.223	1.0021
226.588	1.0084
226.952	1.0041
227.317	1.0097
227.682	1.0116
228.046	0.9999
228.411	1.0027
228.775	0.9961
229.14	0.9973
229.504	0.9918
229.868	0.9848
230.232	0.9842
230.596	0.9697
230.96	0.9676
231.324	0.9528
231.688	0.945
232.052	0.9367
232.415	0.9295
232.779	0.9214
233.142	0.9124
233.505	0.9039
233.869	0.8937
234.232	0.884
234.595	0.8699
234.958	0.8681
235.321	0.8541
235.684	0.8422
236.047	0.8309
236.409	0.8214
236.772	0.8129
237.134	0.8112
237.497	0.7978
237.859	0.7918
238.222	0.7846
238.584	0.7754
238.946	0.7675
239.308	0.7594
239.67	0.7517
240.032	0.7475
240.393	0.7384
240.755	0.7303
241.117	0.7238
241.478	0.7185
241.84	0.7106
242.201	0.7029
242.562	0.6986
242.924	0.6952
243.285	0.6894
243.646	0.6832
244.007	0.6817
244.368	0.677
244.728	0.6719
245.089	0.6642
245.45	0.6606
245.81	0.6586
246.171	0.6578
246.531	0.6503
246.891	0.6453
247.252	0.6417
247.612	0.6401
247.972	0.6376
248.332	0.6364
248.692	0.6333
249.051	0.6299
249.411	0.6286
249.771	0.6253
250.13	0.6224
250.49	0.6217
250.849	0.6226
251.208	0.6171
251.568	0.6167
251.927	0.6148
252.286	0.6159
252.645	0.614
253.004	0.6112
253.363	0.6074
253.721	0.6092
254.08	0.606
254.439	0.6055
254.797	0.6029
255.155	0.6005
255.514	0.6018
255.872	0.6012
256.23	0.5981
256.588	0.5985
256.946	0.5964
257.304	0.5959
257.662	0.5962
258.02	0.5953
258.377	0.5928
258.735	0.5909
259.093	0.5911
259.45	0.5899
259.807	0.5899
260.165	0.5876
260.522	0.5867
260.879	0.5837
261.236	0.5839
261.593	0.5805
261.95	0.5798
262.306	0.5783
262.663	0.5771
263.02	0.576
263.376	0.573
263.733	0.5712
264.089	0.5709
264.445	0.5688
264.802	0.5669
265.158	0.5635
265.514	0.5636
265.87	0.5602
266.226	0.5578
266.581	0.5568
266.937	0.5539
267.293	0.5535
267.648	0.55
268.004	0.549
268.359	0.5462
268.714	0.5415
269.07	0.5417
269.425	0.5355
269.78	0.536
270.135	0.5322
270.49	0.5295
270.844	0.5262
271.199	0.5241
271.554	0.5218
271.908	0.5175
272.263	0.5146
272.617	0.511
272.972	0.5083
273.326	0.5045
273.68	0.5017
274.034	0.4972
274.388	0.4958
274.742	0.492
275.096	0.4885
275.45	0.4859
275.803	0.4831
276.157	0.479
276.51	0.4728
276.864	0.4695
277.217	0.4673
277.571	0.4637
277.924	0.4569
278.277	0.4542
278.63	0.4503
278.983	0.4464
279.336	0.4427
279.688	0.4388
280.041	0.4349
280.394	0.4302
280.746	0.4275
281.099	0.4211
281.451	0.4174
281.803	0.4138
282.156	0.4093
282.508	0.4059
282.86	0.4025
283.212	0.3971
283.564	0.3937
283.916	0.389
284.267	0.3843
284.619	0.3809
284.971	0.3769
285.322	0.3727
285.673	0.3699
286.025	0.3659
286.376	0.3609
286.727	0.3579
287.078	0.3529
287.429	0.3492
287.78	0.3442
288.131	0.3405
288.482	0.3364
288.833	0.3337
289.183	0.3299
289.534	0.3249
289.884	0.3216
290.235	0.3172
290.585	0.313
290.935	0.31
291.285	0.3057
291.635	0.302
291.985	0.2983
292.335	0.2938
292.685	0.2908
293.035	0.2867
293.384	0.2832
293.734	0.2792
294.083	0.2751
294.433	0.2711
294.782	0.2684
295.131	0.2643
295.48	0.2611
295.829	0.2578
296.179	0.2524
296.527	0.2496
296.876	0.2476
297.225	0.2439
297.574	0.2403
297.922	0.2371
298.271	0.2337
298.619	0.2304
298.968	0.2279
299.316	0.2252
299.664	0.2216
300.012	0.2183
300.36	0.2152
300.708	0.2127
301.056	0.2103
301.404	0.2082
301.752	0.2057
302.099	0.2027
302.447	0.2005
302.794	0.1979
303.142	0.1957
303.489	0.1938
303.836	0.1913
304.183	0.1898
304.531	0.1877
304.878	0.1858
305.224	0.1841
305.571	0.1821
305.918	0.1805
306.265	0.1783
306.611	0.1772
306.958	0.1761
307.304	0.1741
307.651	0.1724
307.997	0.1725
308.343	0.1709
308.689	0.1701
309.035	0.1688
309.381	0.1682
309.727	0.1665
310.073	0.166
310.419	0.1647
310.764	0.1648
311.11	0.164
311.455	0.1637
311.801	0.1623
312.146	0.1626
312.491	0.1616
312.837	0.162
313.182	0.1617
313.527	0.1607
313.872	0.1607
314.216	0.1609
314.561	0.1606
314.906	0.1607
315.251	0.1607
315.595	0.1607
315.94	0.1603
316.284	0.1608
316.628	0.1603
316.972	0.1609
317.317	0.1612
317.661	0.1621
318.005	0.1623
318.348	0.1623
318.692	0.1629
319.036	0.1631
319.38	0.1639
319.723	0.1645
320.067	0.1651
320.41	0.1654
320.754	0.1666
321.097	0.1673
321.44	0.1682
321.783	0.1692
322.126	0.17
322.469	0.171
322.812	0.172
323.155	0.1727
323.498	0.1743
323.84	0.1748
324.183	0.1761
324.525	0.1768
324.868	0.1778
325.21	0.1801
325.552	0.1807
325.894	0.1814
326.236	0.183
326.578	0.1843
326.92	0.1852
327.262	0.186
327.604	0.1875
327.946	0.1893
328.287	0.1904
328.629	0.1916
328.97	0.1924
329.312	0.1938
329.653	0.1948
329.994	0.1962
330.335	0.1984
330.676	0.1992
331.017	0.2
331.358	0.2019
331.699	0.203
332.04	0.2049
332.38	0.206
332.721	0.2079
333.061	0.2084
333.402	0.2101
333.742	0.2118
334.083	0.2129
334.423	0.2139
334.763	0.2145
335.103	0.2162
335.443	0.2176
335.783	0.2183
336.123	0.2187
336.462	0.2208
336.802	0.2218
337.141	0.2225
337.481	0.2237
337.82	0.2244
338.16	0.2254
338.499	0.2268
338.838	0.2275
339.177	0.2291
339.516	0.2298
339.855	0.2318
340.194	0.2321
340.533	0.2331
340.872	0.2338
341.21	0.2356
341.549	0.2353
341.887	0.237
342.226	0.2368
342.564	0.2372
342.902	0.2373
343.24	0.2379
343.578	0.238
343.916	0.2388
344.254	0.2394
344.592	0.2397
344.93	0.24
345.268	0.24
345.605	0.2399
345.943	0.2402
346.28	0.24
346.618	0.2404
346.955	0.2409
347.292	0.2401
347.629	0.2411
347.966	0.2417
348.303	0.2407
348.64	0.2411
348.977	0.2411
349.314	0.2409
349.65	0.241
349.987	0.2412
350.324	0.2404
350.66	0.2401
350.996	0.241
351.333	0.2397
351.669	0.2385
352.005	0.2392
352.341	0.2372
352.677	0.2366
353.013	0.2354
353.349	0.235
353.685	0.2337
354.02	0.233
354.356	0.2322
354.691	0.2305
355.027	0.2299
355.362	0.2289
355.697	0.228
356.033	0.2272
356.368	0.2259
356.703	0.2253
357.038	0.2245
357.373	0.2236
357.707	0.2226
358.042	0.2216
358.377	0.2217
358.711	0.2195
359.046	0.2188
359.38	0.2175
359.715	0.2171
360.049	0.2157
360.383	0.2142
360.717	0.2133
361.051	0.2113
361.385	0.2101
361.719	0.2086
362.053	0.2077
362.387	0.2051
362.72	0.204
363.054	0.2011
363.387	0.1996
363.721	0.1981
364.054	0.1965
364.387	0.1945
364.721	0.1933
365.054	0.1913
365.387	0.19
365.72	0.1877
366.053	0.1867
366.385	0.1848
366.718	0.1837
367.051	0.1818
367.383	0.1798
367.716	0.1791
368.048	0.1783
368.381	0.1753
368.713	0.1754
369.045	0.1734
369.377	0.1727
369.709	0.1703
370.041	0.1694
370.373	0.1685
370.705	0.1672
371.037	0.165
371.368	0.1633
371.7	0.1624
372.031	0.1605
372.363	0.1588
372.694	0.1568
373.025	0.1546
373.356	0.1529
373.688	0.1507
374.019	0.1478
374.35	0.1471
374.68	0.1448
375.011	0.1425
375.342	0.1407
375.673	0.1394
376.003	0.1368
376.334	0.1355
376.664	0.1339
376.995	0.132
377.325	0.1315
377.655	0.1298
377.985	0.1282
378.315	0.1269
378.645	0.1264
378.975	0.1242
379.305	0.1225
379.635	0.1216
379.964	0.1198
380.294	0.1189
380.623	0.1178
380.953	0.1165
381.282	0.1151
381.611	0.1133
381.941	0.1128
382.27	0.1111
382.599	0.1095
382.928	0.1082
383.257	0.1066
383.585	0.1054
383.914	0.1044
384.243	0.1024
384.571	0.1005
384.9	0.0991
385.228	0.0974
385.557	0.0965
385.885	0.0951
386.213	0.0928
386.541	0.0919
386.869	0.0895
387.197	0.0878
387.525	0.0861
387.853	0.0845
388.181	0.0839
388.508	0.0829
388.836	0.0819
389.164	0.0798
389.491	0.079
389.818	0.0781
390.146	0.0766
390.473	0.0755
390.8	0.0748
391.127	0.0732
391.454	0.0728
391.781	0.0716
392.108	0.0703
392.435	0.0693
392.761	0.0676
393.088	0.0674
393.415	0.0669
393.741	0.0668
394.067	0.0649
394.394	0.0652
394.72	0.0639
395.046	0.0624
395.372	0.0621
395.698	0.0605
396.024	0.0601
396.35	0.0597
396.676	0.0588
397.001	0.0579
397.327	0.0569
397.653	0.0554
397.978	0.0549
398.303	0.0538
398.629	0.0534
398.954	0.0524
399.279	0.0526
399.604	0.0518
399.929	0.0512
400.254	0.0503
400.579	0.0496
400.904	0.0487
401.229	0.0481
401.553	0.0468
401.878	0.0469
402.202	0.047
402.527	0.0461
402.851	0.0459
403.175	0.0454
403.5	0.0451
403.824	0.0457
404.148	0.0444
404.472	0.0438
404.796	0.0431
405.119	0.0427
405.443	0.0427
405.767	0.0424
406.09	0.042
406.414	0.0427
406.737	0.0421
407.061	0.042
407.384	0.0416
407.707	0.0413
408.03	0.0418
408.353	0.0414
408.676	0.0411
408.999	0.0402
409.322	0.0414
409.645	0.041
409.968	0.0403
410.29	0.0401
410.613	0.0398
410.935	0.04
411.258	0.0402
411.58	0.04
411.902	0.0397
412.224	0.0406
412.546	0.0402
412.868	0.0396
413.19	0.0398
413.512	0.0394
413.834	0.0398
414.156	0.0399
414.477	0.0397
414.799	0.0396
415.121	0.0403
415.442	0.0401
415.763	0.0402
416.085	0.0395
416.406	0.0401
416.727	0.0399
417.048	0.0394
417.369	0.0392
417.69	0.04
418.011	0.0395
418.331	0.0399
418.652	0.0401
418.973	0.04
419.293	0.0398
419.614	0.0401
419.934	0.0396
420.254	0.0409
420.574	0.0397
420.895	0.0401
421.215	0.0397
421.535	0.0392
421.855	0.0403
422.174	0.0395
422.494	0.0396
422.814	0.0405
423.134	0.04
423.453	0.0403
423.773	0.0402
424.092	0.0401
424.411	0.0396
424.731	0.0406
425.05	0.0406
425.369	0.0405
425.688	0.041
426.007	0.0406
426.326	0.0415
426.644	0.0418
426.963	0.0415
427.282	0.0414
427.6	0.0414
427.919	0.0413
428.237	0.0414
428.556	0.0419
428.874	0.0415
429.192	0.0411
429.51	0.0412
429.828	0.0412
430.146	0.0421
430.464	0.0418
430.782	0.0414
431.1	0.0417
431.418	0.0413
431.735	0.0415
432.053	0.042
432.37	0.0423
432.688	0.0416
433.005	0.0417
433.322	0.0422
433.639	0.0418
433.957	0.042
434.274	0.0426
434.591	0.0415
434.907	0.0426
435.224	0.0419
435.541	0.0421
435.858	0.0429
436.174	0.0423
436.491	0.0426
436.807	0.0422
437.124	0.0417
437.44	0.0419
437.756	0.0416
438.072	0.0417
438.388	0.0421
438.704	0.0418
439.02	0.0416
439.336	0.0416
439.652	0.0415
439.968	0.0419
440.283	0.0417
440.599	0.0416
440.914	0.0421
441.23	0.0418
441.545	0.0416
441.86	0.0417
442.175	0.0418
442.491	0.0416
442.806	0.0422
443.121	0.0421
443.435	0.0416
443.75	0.0416
444.065	0.0413
444.38	0.0417
444.694	0.0412
445.009	0.0418
445.323	0.0422
445.638	0.0411
445.952	0.0411
446.266	0.0419
446.58	0.042
446.894	0.0414
447.208	0.042
447.522	0.0417
447.836	0.0402
448.15	0.0405
448.464	0.0405
448.777	0.041
449.091	0.0399
449.404	0.0413
449.718	0.0411
450.031	0.0403
450.345	0.0404
450.658	0.0398
450.971	0.0402
451.284	0.0394
451.597	0.0405
451.91	0.0401
452.223	0.039
452.535	0.0403
452.848	0.0398
453.161	0.0395
453.473	0.04
453.786	0.0399
454.098	0.0391
454.411	0.0389
454.723	0.0391
455.035	0.0392
455.347	0.0397
455.659	0.0391
455.971	0.0391
456.283	0.0387
456.595	0.0392
456.907	0.0388
457.218	0.0388
457.53	0.0388
457.841	0.0378
458.153	0.0382
458.464	0.0371
458.776	0.0372
459.087	0.0372
459.398	0.0372
459.709	0.037
460.02	0.0363
460.331	0.0362
460.642	0.0361
460.953	0.0358
461.263	0.0367
461.574	0.0364
461.885	0.0358
462.195	0.0358
462.506	0.0354
462.816	0.0358
463.126	0.0347
463.437	0.0351
463.747	0.0348
464.057	0.0346
464.367	0.0346
464.677	0.0338
464.987	0.0347
465.296	0.0344
465.606	0.0332
465.916	0.0331
466.225	0.0331
466.535	0.0326
466.844	0.0322
467.154	0.0331
467.463	0.0327
467.772	0.0331
468.081	0.0319
468.39	0.0318
468.699	0.0323
469.008	0.0321
469.317	0.0317
469.626	0.031
469.935	0.0315
470.243	0.0312
470.552	0.0318
470.86	0.031
471.169	0.0311
471.477	0.031
471.785	0.0305
472.093	0.0308
472.402	0.0307
472.71	0.0299
473.018	0.0293
473.326	0.029
473.633	0.0287
473.941	0.0297
474.249	0.0287
474.556	0.0288
474.864	0.0279
475.171	0.0275
475.479	0.0281
475.786	0.0283
476.094	0.0278
476.401	0.0275
476.708	0.0268
477.015	0.028
477.322	0.0274
477.629	0.0268
477.936	0.0257
478.242	0.0263
478.549	0.0265
478.856	0.0254
479.162	0.0261
479.469	0.0263
479.775	0.0262
480.081	0.0249
480.388	0.0256
480.694	0.0246
481	0.0245
481.306	0.0246
481.612	0.0245
481.918	0.024
482.224	0.024
482.53	0.0242
482.835	0.0236
483.141	0.0224
483.446	0.023
483.752	0.0225
484.057	0.0224
484.363	0.0221
484.668	0.0218
484.973	0.0222
485.278	0.0214
485.583	0.02
485.888	0.0207
486.193	0.021
486.498	0.0206
486.803	0.021
487.107	0.0202
487.412	0.0196
487.717	0.0204
488.021	0.0201
488.325	0.0197
488.63	0.0192
488.934	0.0198
489.238	0.0197
489.542	0.0192
489.846	0.0185
490.15	0.019
490.454	0.0187
490.758	0.0192
491.062	0.0184
491.366	0.0182
491.669	0.018
491.973	0.0181
492.276	0.0174
492.58	0.017
492.883	0.0178
493.186	0.0176
493.489	0.0175
493.792	0.017
494.096	0.0169
494.399	0.0163
494.701	0.0166
495.004	0.0163
495.307	0.0155
495.61	0.0154
495.912	0.0153
496.215	0.0148
496.517	0.0152
496.82	0.0149
497.122	0.0153
497.424	0.0143
497.727	0.0148
498.029	0.0147
498.331	0.0147
498.633	0.0148
498.935	0.015
499.237	0.0142
499.538	0.0139
499.84	0.0138
500.142	0.0146
500.443	0.0136
500.745	0.0135
501.046	0.0139
501.348	0.0124
501.649	0.0132
501.95	0.0121
502.251	0.0131
502.552	0.0114
502.853	0.0115
503.154	0.0113
503.455	0.0116
503.756	0.0119
504.057	0.0125
504.357	0.0106
504.658	0.0114
504.958	0.0118
505.259	0.0119
505.559	0.0121
505.859	0.0096
506.16	0.011
506.46	0.0108
506.76	0.011
507.06	0.0104
507.36	0.0114
507.66	0.0115
507.96	0.0106
508.259	0.01
508.559	0.0089
508.859	0.0101
509.158	0.0097
509.457	0.0092
509.757	0.0102
510.056	0.0096
510.355	0.0087
510.655	0.0084
510.954	0.0094
511.253	0.0099
511.552	0.0089
511.851	0.0079
512.149	0.008
512.448	0.0087
512.747	0.0092
513.045	0.0075
513.344	0.0081
513.642	0.0085
513.941	0.0078
514.239	0.0083
514.537	0.009
514.836	0.0084
515.134	0.0083
515.432	0.0076
515.73	0.0088
516.028	0.0064
516.326	0.0074
516.623	0.0068
516.921	0.0075
517.219	0.008
517.516	0.0074
517.814	0.0071
518.111	0.0075
518.409	0.0092
518.706	0.0078
519.003	0.0078
519.3	0.0064
519.597	0.0061
519.894	0.0062
520.191	0.0074
520.488	0.0071
520.785	0.0055
521.082	0.0058
521.378	0.0066
521.675	0.0057
521.971	0.0059
522.268	0.0064
522.564	0.0062
522.861	0.0059
523.157	0.0056
523.453	0.0062
523.749	0.0067
524.045	0.0064
524.341	0.007
524.637	0.0056
524.933	0.0052
525.229	0.0053
525.524	0.0051
525.82	0.0054
526.115	0.0049
526.411	0.0047
526.706	0.006
527.002	0.0052
527.297	0.0047
527.592	0.0068
527.887	0.0063
528.182	0.0061
528.477	0.0071
528.772	0.005
529.067	0.0055
529.362	0.0053
529.657	0.0054
529.951	0.0052
530.246	0.0039
530.54	0.004
530.835	0.004
531.129	0.003
531.423	0.0049
531.718	0.0041
532.012	0.0047
532.306	0.003
532.6	0.0032
532.894	0.0042
533.188	0.005
533.482	0.0035
533.775	0.0041
534.069	0.0046
534.363	0.0025
534.656	0.0033
534.95	0.0027
535.243	0.0039
535.536	0.0039
535.83	0.0036
536.123	0.0027
536.416	0.0028
536.709	0.003
537.002	0.005
537.295	0.0041
537.588	0.0048
537.881	0.004
538.173	0.0034
538.466	0.0032
538.759	0.0031
539.051	0.0023
539.344	0.0028
539.636	0.0032
539.928	0.0024
540.22	0.003
540.513	0.0037
540.805	0.004
541.097	0.0038
541.389	0.0031
541.681	0.0037
541.972	0.004
542.264	0.0029
542.556	0.0043
542.847	0.0038
543.139	0.0044
543.431	0.0047
543.722	0.004
544.013	0.0053
544.305	0.0046
544.596	0.0048
544.887	0.0042
545.178	0.0048
545.469	0.0041
545.76	0.0033
546.051	0.0045
546.342	0.0044
546.632	0.003
546.923	0.0031
547.214	0.004
547.504	0.0027
547.795	0.003
548.085	0.0032
548.375	0.0036
548.666	0.0033
548.956	0.0026
549.246	0.0042
549.536	0.003
549.826	0.0036
550.116	0.0036
550.406	0.0039
550.695	0.0049
550.985	0.0045
551.275	0.0044
551.564	0.0036
551.854	0.0048
552.143	0.0039
552.433	0.0046
552.722	0.0034
553.011	0.0038
553.3	0.0044
553.589	0.0029
553.879	0.003
554.167	0.0032
554.456	0.0036
554.745	0.0024
555.034	0.0023
555.323	0.0022
555.611	0.0019
555.9	0.0037
556.188	0.0032
556.477	0.0032
556.765	0.0024
557.053	0.0026
557.342	0.0022
557.63	0.0032
557.918	0.0026
558.206	0.0029
558.494	0.0036
558.782	0.003
559.069	0.0034
559.357	0.0034
559.645	0.003
559.932	0.0027
560.22	0.0043
560.507	0.0037
560.795	0.0031
561.082	0.0029
561.37	0.0029
561.657	0.0035
561.944	0.0039
562.231	0.0033
562.518	0.0026
562.805	0.003
563.092	0.0046
563.379	0.0038
563.665	0.0028
563.952	0.0031
564.239	0.0041
564.525	0.0037
564.811	0.0048
565.098	0.0034
565.384	0.0044
565.67	0.0046
565.957	0.0036
566.243	0.0042
566.529	0.004
566.815	0.0057
567.101	0.0029
567.387	0.0033
567.672	0.0021
567.958	0.0043
568.244	0.0039
568.529	0.0044
568.815	0.0029
569.1	0.0038
569.386	0.0031
569.671	0.0033
569.956	0.0036
570.242	0.0034
570.527	0.0038
570.812	0.004
571.097	0.0042
571.382	0.0034
571.666	0.0028
571.951	0.0034
572.236	0.0034
572.521	0.0021
572.805	0.003
573.09	0.0028
573.374	0.0032
573.659	0.0025
573.943	0.0032
574.227	0.0027
574.511	0.0033
574.795	0.0032
575.079	0.0027
575.363	0.0036
575.647	0.003
575.931	0.0032
576.215	0.0033
576.499	0.0021
576.782	0.0032
577.066	0.0031
577.349	0.0029
577.633	0.0037
577.916	0.0037
578.2	0.0043
578.483	0.0043
578.766	0.003
579.049	0.0038
579.332	0.0032
579.615	0.0026
579.898	0.0042
580.181	0.0033
580.464	0.0033
580.746	0.0024
581.029	0.0035
581.312	0.0025
581.594	0.0029
581.877	0.0035
582.159	0.0038
582.441	0.0038
582.724	0.0032
583.006	0.0029
583.288	0.0021
583.57	0.0025
583.852	0.002
584.134	0.0023
584.416	0.0034
584.697	0.0028
584.979	0.0027
585.261	0.003
585.542	0.0026
585.824	0.0034
586.105	0.0035
586.387	0.0029
586.668	0.0027
586.949	0.0024
587.231	0.0029
587.512	0.0031
587.793	0.003
588.074	0.0036
588.355	0.0029
588.636	0.0034
588.916	0.0031
589.197	0.0036
589.478	0.0036
589.758	0.0033
590.039	0.0029
590.319	0.0031
590.6	0.0031
590.88	0.0028
591.16	0.0032
591.441	0.0034
591.721	0.0034
592.001	0.0033
592.281	0.0034
592.561	0.0035
592.841	0.0035
593.12	0.0029
593.4	0.0024
593.68	0.0033
593.959	0.0029
594.239	0.0037
594.518	0.002
594.798	0.003
595.077	0.0035
595.356	0.0031
595.636	0.0028
595.915	0.0033
596.194	0.0036
596.473	0.003
596.752	0.0027
