Data from 03 0.2 mM BQDS 0.4 mM K2Cr2O7 1 M H2SO4 5 min_Absorbance_15-47-42-947.txt Node
Date: Wed Dec 08 15:47:42 EST 2021
User: kwabilab-user
Spectrometer: HDX00518
Trigger mode: 0
Integration Time (sec): 5.000000E-2
Scans to average: 50
Nonlinearity correction enabled: false
Boxcar width: 0
Storing dark spectrum: false
XAxis mode: Wavelengths
Number of Pixels in Spectrum: 2068
>>>>>Begin Spectral Data<<<<<
195.27	0.0876
195.642	-0.006
196.014	0.0804
196.386	-0.0263
196.758	0.0189
197.129	0.0197
197.501	0.0489
197.872	0.0833
198.244	0.1021
198.615	0.1118
198.986	0.116
199.357	0.0929
199.728	0.1214
200.099	0.0991
200.47	0.127
200.841	0.1147
201.212	0.11
201.582	0.0982
201.953	0.1185
202.323	0.1016
202.694	0.1134
203.064	0.1191
203.434	0.1036
203.804	0.1194
204.174	0.0944
204.544	0.1124
204.914	0.1077
205.284	0.1105
205.653	0.1235
206.023	0.1135
206.393	0.1013
206.762	0.1181
207.131	0.1154
207.501	0.1214
207.87	0.134
208.239	0.115
208.608	0.0969
208.977	0.1228
209.346	0.1264
209.715	0.1258
210.083	0.132
210.452	0.1403
210.82	0.1334
211.189	0.1353
211.557	0.1416
211.925	0.1498
212.294	0.1677
212.662	0.1661
213.03	0.1687
213.398	0.1562
213.766	0.1793
214.133	0.195
214.501	0.1972
214.869	0.2039
215.236	0.219
215.604	0.2359
215.971	0.2607
216.338	0.2585
216.705	0.2726
217.072	0.2963
217.439	0.3077
217.806	0.3392
218.173	0.3695
218.54	0.396
218.907	0.4447
219.273	0.4717
219.64	0.498
220.006	0.5347
220.373	0.5644
220.739	0.6157
221.105	0.6586
221.471	0.69
221.837	0.7287
222.203	0.7657
222.569	0.7859
222.935	0.8246
223.3	0.8483
223.666	0.8922
224.031	0.9124
224.397	0.9228
224.762	0.942
225.127	0.9687
225.493	0.977
225.858	0.9828
226.223	1.0014
226.588	1.0099
226.952	1.0126
227.317	1.0221
227.682	1.0126
228.046	0.9999
228.411	1.0081
228.775	1.0088
229.14	1.0041
229.504	0.9966
229.868	0.9921
230.232	0.9939
230.596	0.986
230.96	0.9783
231.324	0.965
231.688	0.9552
232.052	0.9562
232.415	0.9433
232.779	0.9341
233.142	0.9247
233.505	0.9149
233.869	0.9085
234.232	0.8991
234.595	0.8859
234.958	0.8783
235.321	0.8712
235.684	0.8603
236.047	0.8487
236.409	0.8398
236.772	0.8355
237.134	0.8263
237.497	0.8154
237.859	0.8066
238.222	0.7954
238.584	0.7882
238.946	0.7805
239.308	0.7751
239.67	0.7643
240.032	0.7588
240.393	0.7492
240.755	0.7412
241.117	0.7366
241.478	0.7277
241.84	0.721
242.201	0.7145
242.562	0.7066
242.924	0.6983
243.285	0.6959
243.646	0.6895
244.007	0.6849
244.368	0.6796
244.728	0.6734
245.089	0.6685
245.45	0.6644
245.81	0.6611
246.171	0.6558
246.531	0.6469
246.891	0.6445
247.252	0.6411
247.612	0.6373
247.972	0.6327
248.332	0.6306
248.692	0.6267
249.051	0.6249
249.411	0.6208
249.771	0.6165
250.13	0.6142
250.49	0.6127
250.849	0.6088
251.208	0.6057
251.568	0.603
251.927	0.5985
252.286	0.5974
252.645	0.596
253.004	0.594
253.363	0.5899
253.721	0.5897
254.08	0.5854
254.439	0.5833
254.797	0.5824
255.155	0.5795
255.514	0.5788
255.872	0.5764
256.23	0.5733
256.588	0.5737
256.946	0.5698
257.304	0.5695
257.662	0.5661
258.02	0.5658
258.377	0.5641
258.735	0.5623
259.093	0.5613
259.45	0.5581
259.807	0.5559
260.165	0.5545
260.522	0.5537
260.879	0.5507
261.236	0.5493
261.593	0.5473
261.95	0.5441
262.306	0.5436
262.663	0.54
263.02	0.5405
263.376	0.5379
263.733	0.5343
264.089	0.5354
264.445	0.5316
264.802	0.5285
265.158	0.526
265.514	0.5242
265.87	0.524
266.226	0.5194
266.581	0.517
266.937	0.516
267.293	0.5142
267.648	0.5117
268.004	0.5097
268.359	0.507
268.714	0.5037
269.07	0.5018
269.425	0.4995
269.78	0.4989
270.135	0.4946
270.49	0.4919
270.844	0.4914
271.199	0.4876
271.554	0.4858
271.908	0.4833
272.263	0.4804
272.617	0.4775
272.972	0.4747
273.326	0.4744
273.68	0.4693
274.034	0.4671
274.388	0.4634
274.742	0.4601
275.096	0.4585
275.45	0.4545
275.803	0.4506
276.157	0.4472
276.51	0.4451
276.864	0.4431
277.217	0.4396
277.571	0.4357
277.924	0.4303
278.277	0.4279
278.63	0.4254
278.983	0.4228
279.336	0.4203
279.688	0.4142
280.041	0.4116
280.394	0.4085
280.746	0.4059
281.099	0.4009
281.451	0.3973
281.803	0.3945
282.156	0.3918
282.508	0.387
282.86	0.3826
283.212	0.3792
283.564	0.377
283.916	0.3734
284.267	0.3692
284.619	0.3651
284.971	0.3622
285.322	0.3584
285.673	0.3555
286.025	0.3523
286.376	0.3476
286.727	0.3428
287.078	0.3396
287.429	0.3368
287.78	0.3322
288.131	0.3284
288.482	0.3243
288.833	0.322
289.183	0.317
289.534	0.3136
289.884	0.3098
290.235	0.3055
290.585	0.301
290.935	0.2985
291.285	0.2949
291.635	0.2907
291.985	0.2874
292.335	0.284
292.685	0.28
293.035	0.2771
293.384	0.2729
293.734	0.2689
294.083	0.2656
294.433	0.2608
294.782	0.2581
295.131	0.2553
295.48	0.252
295.829	0.2484
296.179	0.2441
296.527	0.2416
296.876	0.2381
297.225	0.2354
297.574	0.2322
297.922	0.2288
298.271	0.2256
298.619	0.2218
298.968	0.2199
299.316	0.2174
299.664	0.2137
300.012	0.2106
300.36	0.2078
300.708	0.2047
301.056	0.2029
301.404	0.2004
301.752	0.1982
302.099	0.1953
302.447	0.1938
302.794	0.1911
303.142	0.1887
303.489	0.1861
303.836	0.1844
304.183	0.182
304.531	0.1809
304.878	0.1787
305.224	0.1764
305.571	0.1753
305.918	0.1738
306.265	0.1717
306.611	0.1701
306.958	0.1692
307.304	0.1678
307.651	0.1662
307.997	0.1652
308.343	0.1643
308.689	0.1626
309.035	0.1618
309.381	0.1616
309.727	0.1595
310.073	0.1593
310.419	0.1588
310.764	0.1576
311.11	0.1573
311.455	0.1565
311.801	0.1553
312.146	0.1559
312.491	0.1552
312.837	0.1549
313.182	0.1544
313.527	0.1544
313.872	0.1535
314.216	0.1531
314.561	0.1532
314.906	0.1532
315.251	0.1533
315.595	0.1528
315.94	0.1525
316.284	0.1528
316.628	0.1529
316.972	0.1528
317.317	0.153
317.661	0.1533
318.005	0.1539
318.348	0.1544
318.692	0.1548
319.036	0.1547
319.38	0.155
319.723	0.1562
320.067	0.1557
320.41	0.1568
320.754	0.157
321.097	0.1577
321.44	0.1589
321.783	0.1588
322.126	0.1598
322.469	0.1613
322.812	0.1618
323.155	0.1627
323.498	0.164
323.84	0.1645
324.183	0.165
324.525	0.1668
324.868	0.1672
325.21	0.1681
325.552	0.1693
325.894	0.1695
326.236	0.1713
326.578	0.1719
326.92	0.173
327.262	0.1737
327.604	0.1755
327.946	0.1759
328.287	0.1776
328.629	0.1784
328.97	0.1798
329.312	0.1804
329.653	0.1821
329.994	0.1829
330.335	0.1846
330.676	0.1851
331.017	0.1856
331.358	0.1873
331.699	0.1889
332.04	0.1898
332.38	0.1906
332.721	0.1931
333.061	0.1934
333.402	0.1948
333.742	0.196
334.083	0.1974
334.423	0.198
334.763	0.1987
335.103	0.2001
335.443	0.2013
335.783	0.2019
336.123	0.2024
336.462	0.2038
336.802	0.2046
337.141	0.2056
337.481	0.2069
337.82	0.2071
338.16	0.2083
338.499	0.209
338.838	0.2095
339.177	0.2116
339.516	0.2119
339.855	0.2135
340.194	0.2136
340.533	0.2147
340.872	0.215
341.21	0.2167
341.549	0.2167
341.887	0.2176
342.226	0.2182
342.564	0.2175
342.902	0.2185
343.24	0.2192
343.578	0.2186
343.916	0.2192
344.254	0.2192
344.592	0.2197
344.93	0.2192
345.268	0.2198
345.605	0.2204
345.943	0.2203
346.28	0.2202
346.618	0.2202
346.955	0.2207
347.292	0.2209
347.629	0.2208
347.966	0.2205
348.303	0.221
348.64	0.2205
348.977	0.2211
349.314	0.2212
349.65	0.2214
349.987	0.2212
350.324	0.2194
350.66	0.2203
350.996	0.22
351.333	0.2187
351.669	0.218
352.005	0.2177
352.341	0.2174
352.677	0.2163
353.013	0.2153
353.349	0.2149
353.685	0.2135
354.02	0.2128
354.356	0.2123
354.691	0.2108
355.027	0.2107
355.362	0.2086
355.697	0.2079
356.033	0.2076
356.368	0.2059
356.703	0.2053
357.038	0.2049
357.373	0.2042
357.707	0.2033
358.042	0.2017
358.377	0.2011
358.711	0.2004
359.046	0.1995
359.38	0.1982
359.715	0.1979
360.049	0.1963
360.383	0.195
360.717	0.1941
361.051	0.192
361.385	0.1917
361.719	0.1895
362.053	0.1888
362.387	0.1863
362.72	0.1847
363.054	0.1834
363.387	0.1815
363.721	0.1802
364.054	0.1782
364.387	0.1765
364.721	0.1754
365.054	0.1733
365.387	0.1721
365.72	0.1707
366.053	0.1689
366.385	0.1668
366.718	0.166
367.051	0.1646
367.383	0.1632
367.716	0.162
368.048	0.1613
368.381	0.1599
368.713	0.1581
369.045	0.1572
369.377	0.1555
369.709	0.1543
370.041	0.1536
370.373	0.1528
370.705	0.1511
371.037	0.1487
371.368	0.147
371.7	0.1466
372.031	0.1447
372.363	0.1429
372.694	0.1412
373.025	0.1393
373.356	0.1378
373.688	0.1353
374.019	0.1334
374.35	0.1319
374.68	0.1299
375.011	0.1281
375.342	0.1271
375.673	0.1248
376.003	0.1232
376.334	0.1219
376.664	0.1199
376.995	0.1182
377.325	0.1174
377.655	0.1162
377.985	0.1146
378.315	0.1138
378.645	0.1118
378.975	0.1111
379.305	0.109
379.635	0.1086
379.964	0.1073
380.294	0.1063
380.623	0.1047
380.953	0.1041
381.282	0.1027
381.611	0.1006
381.941	0.1002
382.27	0.099
382.599	0.0972
382.928	0.0965
383.257	0.0949
383.585	0.0935
383.914	0.0925
384.243	0.0906
384.571	0.0895
384.9	0.0878
385.228	0.0863
385.557	0.085
385.885	0.0833
386.213	0.0819
386.541	0.0808
386.869	0.079
387.197	0.0775
387.525	0.0758
387.853	0.0749
388.181	0.0742
388.508	0.0728
388.836	0.0719
389.164	0.0708
389.491	0.0695
389.818	0.0684
390.146	0.0674
390.473	0.0661
390.8	0.0655
391.127	0.0641
391.454	0.0636
391.781	0.063
392.108	0.0616
392.435	0.0599
392.761	0.0588
393.088	0.0584
393.415	0.0583
393.741	0.0579
394.067	0.0573
394.394	0.0564
394.72	0.0555
395.046	0.0547
395.372	0.0534
395.698	0.0526
396.024	0.0523
396.35	0.0515
396.676	0.0514
397.001	0.0504
397.327	0.0493
397.653	0.0484
397.978	0.0478
398.303	0.0467
398.629	0.0461
398.954	0.0456
399.279	0.0456
399.604	0.0448
399.929	0.0445
400.254	0.0436
400.579	0.0432
400.904	0.0416
401.229	0.0415
401.553	0.0405
401.878	0.0403
402.202	0.04
402.527	0.0398
402.851	0.0398
403.175	0.0386
403.5	0.0385
403.824	0.0392
404.148	0.0383
404.472	0.0385
404.796	0.0377
405.119	0.037
405.443	0.0373
405.767	0.0358
406.09	0.0362
406.414	0.0368
406.737	0.036
407.061	0.0358
407.384	0.0359
407.707	0.0356
408.03	0.0361
408.353	0.0362
408.676	0.0355
408.999	0.0346
409.322	0.0356
409.645	0.0355
409.968	0.0349
410.29	0.0352
410.613	0.0348
410.935	0.035
411.258	0.0351
411.58	0.0347
411.902	0.035
412.224	0.035
412.546	0.0349
412.868	0.0346
413.19	0.0351
413.512	0.0346
413.834	0.0348
414.156	0.0351
414.477	0.0346
414.799	0.035
415.121	0.0354
415.442	0.0353
415.763	0.0354
416.085	0.0348
416.406	0.0353
416.727	0.0354
417.048	0.0347
417.369	0.0346
417.69	0.0348
418.011	0.0355
418.331	0.035
418.652	0.0353
418.973	0.0354
419.293	0.035
419.614	0.0354
419.934	0.035
420.254	0.0361
420.574	0.035
420.895	0.0354
421.215	0.0345
421.535	0.035
421.855	0.035
422.174	0.0351
422.494	0.0348
422.814	0.0361
423.134	0.0357
423.453	0.0355
423.773	0.0356
424.092	0.0355
424.411	0.0353
424.731	0.0358
425.05	0.0358
425.369	0.0362
425.688	0.0367
426.007	0.0367
426.326	0.0366
426.644	0.0373
426.963	0.0363
427.282	0.0374
427.6	0.0369
427.919	0.0367
428.237	0.0368
428.556	0.0373
428.874	0.0367
429.192	0.0368
429.51	0.0368
429.828	0.0371
430.146	0.0371
430.464	0.0372
430.782	0.0373
431.1	0.037
431.418	0.0369
431.735	0.0372
432.053	0.0373
432.37	0.038
432.688	0.0368
433.005	0.0375
433.322	0.0377
433.639	0.0372
433.957	0.0373
434.274	0.0374
434.591	0.0375
434.907	0.0381
435.224	0.0372
435.541	0.0378
435.858	0.0382
436.174	0.0384
436.491	0.0381
436.807	0.0377
437.124	0.0373
437.44	0.0372
437.756	0.037
438.072	0.037
438.388	0.0382
438.704	0.0378
439.02	0.0376
439.336	0.0377
439.652	0.0378
439.968	0.0378
440.283	0.0375
440.599	0.0375
440.914	0.0374
441.23	0.0374
441.545	0.0373
441.86	0.0371
442.175	0.0381
442.491	0.0373
442.806	0.0373
443.121	0.0372
443.435	0.0367
443.75	0.0369
444.065	0.0369
444.38	0.0369
444.694	0.0371
445.009	0.0369
445.323	0.0372
445.638	0.0371
445.952	0.037
446.266	0.0366
446.58	0.0371
446.894	0.0373
447.208	0.0377
447.522	0.0372
447.836	0.0355
448.15	0.0361
448.464	0.0364
448.777	0.0362
449.091	0.0359
449.404	0.0362
449.718	0.0372
450.031	0.0359
450.345	0.0357
450.658	0.036
450.971	0.0359
451.284	0.0355
451.597	0.0361
451.91	0.0364
452.223	0.0351
452.535	0.0363
452.848	0.0353
453.161	0.0348
453.473	0.0353
453.786	0.0356
454.098	0.0348
454.411	0.0345
454.723	0.0351
455.035	0.0351
455.347	0.0349
455.659	0.0359
455.971	0.0349
456.283	0.0355
456.595	0.0346
456.907	0.0347
457.218	0.0345
457.53	0.0342
457.841	0.0342
458.153	0.0339
458.464	0.0332
458.776	0.0326
459.087	0.033
459.398	0.0332
459.709	0.0328
460.02	0.0333
460.331	0.0325
460.642	0.0326
460.953	0.032
461.263	0.0329
461.574	0.032
461.885	0.0322
462.195	0.0321
462.506	0.0317
462.816	0.0317
463.126	0.031
463.437	0.0323
463.747	0.0306
464.057	0.0312
464.367	0.0314
464.677	0.0303
464.987	0.0297
465.296	0.03
465.606	0.0295
465.916	0.0293
466.225	0.0292
466.535	0.0296
466.844	0.0298
467.154	0.0289
467.463	0.0286
467.772	0.0291
468.081	0.0291
468.39	0.0282
468.699	0.0283
469.008	0.0286
469.317	0.0284
469.626	0.0275
469.935	0.0274
470.243	0.0281
470.552	0.0281
470.86	0.0278
471.169	0.0269
471.477	0.0271
471.785	0.0278
472.093	0.0275
472.402	0.0268
472.71	0.0266
473.018	0.0261
473.326	0.0255
473.633	0.0261
473.941	0.0261
474.249	0.0253
474.556	0.0259
474.864	0.0255
475.171	0.0242
475.479	0.0247
475.786	0.0251
476.094	0.0245
476.401	0.025
476.708	0.024
477.015	0.0245
477.322	0.0244
477.629	0.0236
477.936	0.0235
478.242	0.0233
478.549	0.0235
478.856	0.0234
479.162	0.0229
479.469	0.0229
479.775	0.0226
480.081	0.0212
480.388	0.0225
480.694	0.0215
481	0.0219
481.306	0.0218
481.612	0.0215
481.918	0.0206
482.224	0.0214
482.53	0.0217
482.835	0.021
483.141	0.0196
483.446	0.0195
483.752	0.0198
484.057	0.019
484.363	0.0195
484.668	0.0183
484.973	0.0188
485.278	0.0185
485.583	0.0183
485.888	0.0178
486.193	0.0176
486.498	0.0185
486.803	0.0184
487.107	0.0173
487.412	0.017
487.717	0.0172
488.021	0.0179
488.325	0.0172
488.63	0.0161
488.934	0.0169
489.238	0.017
489.542	0.017
489.846	0.0158
490.15	0.0167
490.454	0.0158
490.758	0.0161
491.062	0.0153
491.366	0.0158
491.669	0.0159
491.973	0.0158
492.276	0.0154
492.58	0.0138
492.883	0.0153
493.186	0.0153
493.489	0.0147
493.792	0.0152
494.096	0.0145
494.399	0.0148
494.701	0.015
495.004	0.0143
495.307	0.0131
495.61	0.0124
495.912	0.0133
496.215	0.0129
496.517	0.0121
496.82	0.0124
497.122	0.013
497.424	0.0126
497.727	0.0124
498.029	0.0131
498.331	0.0132
498.633	0.0128
498.935	0.0124
499.237	0.0125
499.538	0.0119
499.84	0.0118
500.142	0.0122
500.443	0.0117
500.745	0.0112
501.046	0.0111
501.348	0.0108
501.649	0.0108
501.95	0.0106
502.251	0.0106
502.552	0.0104
502.853	0.0103
503.154	0.0102
503.455	0.0101
503.756	0.0098
504.057	0.0105
504.357	0.0087
504.658	0.009
504.958	0.0093
505.259	0.0098
505.559	0.0103
505.859	0.0091
506.16	0.0099
506.46	0.0092
506.76	0.01
507.06	0.0089
507.36	0.0088
507.66	0.0092
507.96	0.0088
508.259	0.0085
508.559	0.0073
508.859	0.0083
509.158	0.0082
509.457	0.008
509.757	0.0086
510.056	0.0079
510.355	0.0076
510.655	0.0064
510.954	0.0068
511.253	0.0076
511.552	0.0066
511.851	0.0068
512.149	0.007
512.448	0.007
512.747	0.0073
513.045	0.0057
513.344	0.0074
513.642	0.0076
513.941	0.0067
514.239	0.0068
514.537	0.0061
514.836	0.0069
515.134	0.006
515.432	0.0056
515.73	0.0062
516.028	0.0065
516.326	0.0066
516.623	0.0062
516.921	0.0057
517.219	0.0074
517.516	0.0069
517.814	0.0064
518.111	0.0069
518.409	0.0078
518.706	0.0067
519.003	0.0064
519.3	0.0058
519.597	0.0057
519.894	0.006
520.191	0.0071
520.488	0.0059
520.785	0.0054
521.082	0.0055
521.378	0.0059
521.675	0.0045
521.971	0.005
522.268	0.0053
522.564	0.0064
522.861	0.0053
523.157	0.0049
523.453	0.0049
523.749	0.0054
524.045	0.0065
524.341	0.0051
524.637	0.005
524.933	0.0049
525.229	0.0049
525.524	0.005
525.82	0.0045
526.115	0.0034
526.411	0.0043
526.706	0.0038
527.002	0.0049
527.297	0.0034
527.592	0.0048
527.887	0.0054
528.182	0.0049
528.477	0.0058
528.772	0.0044
529.067	0.0047
529.362	0.0048
529.657	0.0042
529.951	0.0047
530.246	0.0037
530.54	0.0025
530.835	0.0028
531.129	0.0031
531.423	0.0043
531.718	0.0029
532.012	0.003
532.306	0.0037
532.6	0.0043
532.894	0.0033
533.188	0.0033
533.482	0.0035
533.775	0.0032
534.069	0.0029
534.363	0.0023
534.656	0.0024
534.95	0.0015
535.243	0.0034
535.536	0.0032
535.83	0.0038
536.123	0.0029
536.416	0.0031
536.709	0.0035
537.002	0.0045
537.295	0.0036
537.588	0.0034
537.881	0.0023
538.173	0.0025
538.466	0.0028
538.759	0.002
539.051	0.0023
539.344	0.0024
539.636	0.0027
539.928	0.003
540.22	0.0029
540.513	0.0032
540.805	0.0028
541.097	0.0034
541.389	0.002
541.681	0.0031
541.972	0.0026
542.264	0.0025
542.556	0.0028
542.847	0.0029
543.139	0.0033
543.431	0.0035
543.722	0.0024
544.013	0.0044
544.305	0.0041
544.596	0.0044
544.887	0.003
545.178	0.0024
545.469	0.0033
545.76	0.0025
546.051	0.0029
546.342	0.0037
546.632	0.0022
546.923	0.0024
547.214	0.0031
547.504	0.0021
547.795	0.003
548.085	0.0032
548.375	0.003
548.666	0.0032
548.956	0.0018
549.246	0.0025
549.536	0.0029
549.826	0.0029
550.116	0.0035
550.406	0.0035
550.695	0.0035
550.985	0.0036
551.275	0.0041
551.564	0.0034
551.854	0.0031
552.143	0.0029
552.433	0.0032
552.722	0.0032
553.011	0.0035
553.3	0.0025
553.589	0.0031
553.879	0.0025
554.167	0.0032
554.456	0.0023
554.745	0.0022
555.034	0.002
555.323	0.0003
555.611	0.0017
555.9	0.0025
556.188	0.0032
556.477	0.0021
556.765	0.0025
557.053	0.0028
557.342	0.0019
557.63	0.0024
557.918	0.0024
558.206	0.0025
558.494	0.0035
558.782	0.0036
559.069	0.0039
559.357	0.0033
559.645	0.0028
559.932	0.0026
560.22	0.0037
560.507	0.0033
560.795	0.003
561.082	0.0028
561.37	0.0027
561.657	0.0026
561.944	0.0031
562.231	0.0029
562.518	0.0027
562.805	0.0035
563.092	0.0031
563.379	0.0037
563.665	0.0033
563.952	0.0039
564.239	0.0032
564.525	0.0042
564.811	0.004
565.098	0.0037
565.384	0.0032
565.67	0.0034
565.957	0.0035
566.243	0.0034
566.529	0.004
566.815	0.005
567.101	0.0032
567.387	0.0028
567.672	0.0033
567.958	0.0032
568.244	0.0041
568.529	0.0032
568.815	0.0025
569.1	0.0027
569.386	0.0029
569.671	0.0024
569.956	0.0024
570.242	0.0026
570.527	0.0028
570.812	0.0037
571.097	0.0028
571.382	0.0027
571.666	0.0026
571.951	0.002
572.236	0.003
572.521	0.0024
572.805	0.003
573.09	0.0021
573.374	0.0014
573.659	0.002
573.943	0.0033
574.227	0.0021
574.511	0.0028
574.795	0.0027
575.079	0.0019
575.363	0.0025
575.647	0.0027
575.931	0.003
576.215	0.0027
576.499	0.0022
576.782	0.0028
577.066	0.002
577.349	0.0022
577.633	0.0038
577.916	0.0023
578.2	0.0034
578.483	0.0034
578.766	0.0028
579.049	0.0029
579.332	0.0031
579.615	0.0017
579.898	0.0027
580.181	0.003
580.464	0.0027
580.746	0.0011
581.029	0.0029
581.312	0.0016
581.594	0.0017
581.877	0.0025
582.159	0.003
582.441	0.0028
582.724	0.0025
583.006	0.0033
583.288	0.0023
583.57	0.0019
583.852	0.0024
584.134	0.0016
584.416	0.0023
584.697	0.0022
584.979	0.0028
585.261	0.0023
585.542	0.0027
585.824	0.0029
586.105	0.0033
586.387	0.0024
586.668	0.0026
586.949	0.0026
587.231	0.002
587.512	0.0027
587.793	0.0022
588.074	0.0032
588.355	0.0024
588.636	0.0034
588.916	0.003
589.197	0.0037
589.478	0.0029
589.758	0.003
590.039	0.0026
590.319	0.0023
590.6	0.0035
590.88	0.0029
591.16	0.0028
591.441	0.0037
591.721	0.0031
592.001	0.003
592.281	0.003
592.561	0.0028
592.841	0.0028
593.12	0.0021
593.4	0.0016
593.68	0.0031
593.959	0.0025
594.239	0.004
594.518	0.002
594.798	0.0025
595.077	0.0031
595.356	0.0026
595.636	0.0029
595.915	0.0032
596.194	0.0037
596.473	0.0034
