Data from 03 0.2 mM BQDS 0.4 mM K2Cr2O7 1 M H2SO4 5 min_Absorbance_11-17-42-421.txt Node
Date: Wed Dec 08 11:17:42 EST 2021
User: kwabilab-user
Spectrometer: HDX00518
Trigger mode: 0
Integration Time (sec): 5.000000E-2
Scans to average: 50
Nonlinearity correction enabled: false
Boxcar width: 0
Storing dark spectrum: false
XAxis mode: Wavelengths
Number of Pixels in Spectrum: 2068
>>>>>Begin Spectral Data<<<<<
195.27	0.1694
195.642	0.1282
196.014	0.1187
196.386	-0.0085
196.758	0.0425
197.129	0.0393
197.501	0.0425
197.872	0.0951
198.244	0.1176
198.615	0.1154
198.986	0.1116
199.357	0.099
199.728	0.0973
200.099	0.0999
200.47	0.1181
200.841	0.1096
201.212	0.114
201.582	0.0876
201.953	0.1088
202.323	0.1068
202.694	0.1006
203.064	0.1084
203.434	0.1001
203.804	0.1182
204.174	0.1071
204.544	0.1075
204.914	0.1125
205.284	0.1108
205.653	0.1239
206.023	0.1015
206.393	0.1113
206.762	0.1095
207.131	0.1161
207.501	0.1275
207.87	0.1352
208.239	0.1279
208.608	0.1112
208.977	0.1232
209.346	0.1358
209.715	0.1258
210.083	0.1322
210.452	0.1236
210.82	0.1419
211.189	0.1435
211.557	0.13
211.925	0.142
212.294	0.1716
212.662	0.1517
213.03	0.1765
213.398	0.1602
213.766	0.1695
214.133	0.1881
214.501	0.1966
214.869	0.1911
215.236	0.2276
215.604	0.2282
215.971	0.2486
216.338	0.2562
216.705	0.2697
217.072	0.3086
217.439	0.3126
217.806	0.3414
218.173	0.3879
218.54	0.3934
218.907	0.4321
219.273	0.4722
219.64	0.5129
220.006	0.5335
220.373	0.5716
220.739	0.6103
221.105	0.6586
221.471	0.6874
221.837	0.7314
222.203	0.7671
222.569	0.798
222.935	0.819
223.3	0.8357
223.666	0.8827
224.031	0.8901
224.397	0.9175
224.762	0.9372
225.127	0.9567
225.493	0.9704
225.858	0.9802
226.223	0.9859
226.588	1.0026
226.952	1.004
227.317	1.0055
227.682	1.0025
228.046	1.0016
228.411	1.0028
228.775	0.9998
229.14	0.994
229.504	0.9864
229.868	0.9851
230.232	0.9715
230.596	0.9669
230.96	0.9676
231.324	0.9549
231.688	0.9477
232.052	0.9378
232.415	0.9301
232.779	0.923
233.142	0.9173
233.505	0.903
233.869	0.8975
234.232	0.8873
234.595	0.8776
234.958	0.8687
235.321	0.8589
235.684	0.8468
236.047	0.837
236.409	0.8273
236.772	0.8199
237.134	0.8129
237.497	0.8042
237.859	0.7942
238.222	0.7887
238.584	0.7783
238.946	0.768
239.308	0.7614
239.67	0.7529
240.032	0.7479
240.393	0.7397
240.755	0.7311
241.117	0.7257
241.478	0.7199
241.84	0.713
242.201	0.7038
242.562	0.7005
242.924	0.693
243.285	0.6869
243.646	0.6811
244.007	0.6776
244.368	0.6715
244.728	0.6675
245.089	0.6613
245.45	0.6574
245.81	0.6546
246.171	0.6488
246.531	0.6419
246.891	0.6408
247.252	0.639
247.612	0.6323
247.972	0.6282
248.332	0.6262
248.692	0.6236
249.051	0.6193
249.411	0.6172
249.771	0.6115
250.13	0.6098
250.49	0.6082
250.849	0.6066
251.208	0.6035
251.568	0.6006
251.927	0.5978
252.286	0.596
252.645	0.5957
253.004	0.5923
253.363	0.5896
253.721	0.5885
254.08	0.5874
254.439	0.5855
254.797	0.5829
255.155	0.5812
255.514	0.5806
255.872	0.5789
256.23	0.5771
256.588	0.5752
256.946	0.5722
257.304	0.5705
257.662	0.5701
258.02	0.5699
258.377	0.568
258.735	0.5654
259.093	0.5635
259.45	0.5628
259.807	0.5617
260.165	0.5588
260.522	0.5563
260.879	0.5555
261.236	0.5541
261.593	0.5527
261.95	0.5493
262.306	0.5493
262.663	0.546
263.02	0.5454
263.376	0.5435
263.733	0.5398
264.089	0.5402
264.445	0.5381
264.802	0.5352
265.158	0.5344
265.514	0.5315
265.87	0.5297
266.226	0.5266
266.581	0.5243
266.937	0.524
267.293	0.5197
267.648	0.5183
268.004	0.5159
268.359	0.5141
268.714	0.5103
269.07	0.508
269.425	0.5053
269.78	0.5049
270.135	0.5016
270.49	0.5003
270.844	0.4972
271.199	0.4946
271.554	0.4916
271.908	0.4883
272.263	0.4846
272.617	0.4849
272.972	0.4816
273.326	0.4775
273.68	0.4749
274.034	0.472
274.388	0.4693
274.742	0.4648
275.096	0.4613
275.45	0.4599
275.803	0.4557
276.157	0.4514
276.51	0.4489
276.864	0.4461
277.217	0.4434
277.571	0.4383
277.924	0.4359
278.277	0.4331
278.63	0.4288
278.983	0.4243
279.336	0.4222
279.688	0.4187
280.041	0.4154
280.394	0.4101
280.746	0.4072
281.099	0.4034
281.451	0.3986
281.803	0.3949
282.156	0.3931
282.508	0.3892
282.86	0.3854
283.212	0.3816
283.564	0.378
283.916	0.3727
284.267	0.3705
284.619	0.3662
284.971	0.362
285.322	0.3585
285.673	0.3555
286.025	0.3518
286.376	0.3479
286.727	0.3438
287.078	0.3397
287.429	0.3376
287.78	0.3327
288.131	0.3284
288.482	0.3245
288.833	0.3217
289.183	0.3168
289.534	0.3147
289.884	0.31
290.235	0.3063
290.585	0.3012
290.935	0.2984
291.285	0.2941
291.635	0.2913
291.985	0.2866
292.335	0.2838
292.685	0.2802
293.035	0.2768
293.384	0.2721
293.734	0.2697
294.083	0.2648
294.433	0.2614
294.782	0.2587
295.131	0.2545
295.48	0.2517
295.829	0.2483
296.179	0.2439
296.527	0.2415
296.876	0.2382
297.225	0.2356
297.574	0.2317
297.922	0.2285
298.271	0.2254
298.619	0.2227
298.968	0.2201
299.316	0.2171
299.664	0.2138
300.012	0.2113
300.36	0.2078
300.708	0.2051
301.056	0.2029
301.404	0.2009
301.752	0.1981
302.099	0.1957
302.447	0.1939
302.794	0.1914
303.142	0.1894
303.489	0.1869
303.836	0.1841
304.183	0.1831
304.531	0.1804
304.878	0.179
305.224	0.1766
305.571	0.1752
305.918	0.174
306.265	0.1722
306.611	0.1707
306.958	0.1692
307.304	0.1682
307.651	0.167
307.997	0.1661
308.343	0.1647
308.689	0.1636
309.035	0.1626
309.381	0.162
309.727	0.16
310.073	0.1597
310.419	0.1594
310.764	0.1583
311.11	0.1581
311.455	0.1575
311.801	0.1566
312.146	0.1557
312.491	0.1555
312.837	0.1555
313.182	0.1557
313.527	0.1546
313.872	0.1542
314.216	0.1547
314.561	0.1536
314.906	0.1545
315.251	0.1545
315.595	0.154
315.94	0.1546
316.284	0.1543
316.628	0.154
316.972	0.1538
317.317	0.1544
317.661	0.1557
318.005	0.1552
318.348	0.1555
318.692	0.1556
319.036	0.1566
319.38	0.1567
319.723	0.1578
320.067	0.1577
320.41	0.1583
320.754	0.1588
321.097	0.1597
321.44	0.1603
321.783	0.1608
322.126	0.1616
322.469	0.1631
322.812	0.1636
323.155	0.1648
323.498	0.1653
323.84	0.1665
324.183	0.1674
324.525	0.1682
324.868	0.1693
325.21	0.1709
325.552	0.1715
325.894	0.1719
326.236	0.1735
326.578	0.1747
326.92	0.1757
327.262	0.1764
327.604	0.1779
327.946	0.1787
328.287	0.1803
328.629	0.1813
328.97	0.1823
329.312	0.1832
329.653	0.1848
329.994	0.1864
330.335	0.1873
330.676	0.1883
331.017	0.1891
331.358	0.1909
331.699	0.1919
332.04	0.1937
332.38	0.1944
332.721	0.1964
333.061	0.1969
333.402	0.1983
333.742	0.1991
334.083	0.2009
334.423	0.2022
334.763	0.2026
335.103	0.2044
335.443	0.2047
335.783	0.206
336.123	0.2057
336.462	0.2079
336.802	0.2088
337.141	0.2095
337.481	0.2104
337.82	0.2115
338.16	0.212
338.499	0.2129
338.838	0.2138
339.177	0.2156
339.516	0.2166
339.855	0.2177
340.194	0.218
340.533	0.2191
340.872	0.2198
341.21	0.2203
341.549	0.2213
341.887	0.2223
342.226	0.2227
342.564	0.2226
342.902	0.2228
343.24	0.223
343.578	0.2233
343.916	0.224
344.254	0.2241
344.592	0.2249
344.93	0.225
345.268	0.2246
345.605	0.2253
345.943	0.2254
346.28	0.2257
346.618	0.2249
346.955	0.2256
347.292	0.2257
347.629	0.2259
347.966	0.226
348.303	0.2262
348.64	0.2254
348.977	0.226
349.314	0.2259
349.65	0.2261
349.987	0.2257
350.324	0.2253
350.66	0.225
350.996	0.2251
351.333	0.2236
351.669	0.2224
352.005	0.2232
352.341	0.222
352.677	0.2216
353.013	0.2204
353.349	0.2197
353.685	0.218
354.02	0.2175
354.356	0.2173
354.691	0.2161
355.027	0.215
355.362	0.2136
355.697	0.213
356.033	0.2118
356.368	0.2109
356.703	0.2107
357.038	0.2097
357.373	0.2084
357.707	0.2083
358.042	0.2065
358.377	0.2067
358.711	0.205
359.046	0.2046
359.38	0.2032
359.715	0.202
360.049	0.2008
360.383	0.2001
360.717	0.1992
361.051	0.197
361.385	0.1957
361.719	0.1941
362.053	0.1936
362.387	0.1907
362.72	0.1891
363.054	0.1872
363.387	0.1865
363.721	0.1845
364.054	0.1823
364.387	0.181
364.721	0.1803
365.054	0.1783
365.387	0.1765
365.72	0.1756
366.053	0.1731
366.385	0.1711
366.718	0.1708
367.051	0.1686
367.383	0.1676
367.716	0.1661
368.048	0.1654
368.381	0.1639
368.713	0.1631
369.045	0.1617
369.377	0.1597
369.709	0.1592
370.041	0.1576
370.373	0.1563
370.705	0.1551
371.037	0.1533
371.368	0.1518
371.7	0.1511
372.031	0.1492
372.363	0.1472
372.694	0.1451
373.025	0.1434
373.356	0.142
373.688	0.1395
374.019	0.1373
374.35	0.1357
374.68	0.1339
375.011	0.1325
375.342	0.1299
375.673	0.1287
376.003	0.1271
376.334	0.125
376.664	0.1233
376.995	0.1218
377.325	0.1211
377.655	0.1199
377.985	0.1175
378.315	0.1169
378.645	0.1154
378.975	0.1142
379.305	0.1133
379.635	0.112
379.964	0.1102
380.294	0.1093
380.623	0.1086
380.953	0.1071
381.282	0.1055
381.611	0.1041
381.941	0.1034
382.27	0.1024
382.599	0.1002
382.928	0.0992
383.257	0.098
383.585	0.0971
383.914	0.0951
384.243	0.0941
384.571	0.092
384.9	0.0908
385.228	0.0891
385.557	0.0882
385.885	0.0863
386.213	0.0849
386.541	0.0834
386.869	0.0818
387.197	0.0804
387.525	0.0788
387.853	0.0776
388.181	0.0767
388.508	0.076
388.836	0.0751
389.164	0.0733
389.491	0.072
389.818	0.0716
390.146	0.0701
390.473	0.0682
390.8	0.0678
391.127	0.0662
391.454	0.0655
391.781	0.0647
392.108	0.0641
392.435	0.0633
392.761	0.0613
393.088	0.0606
393.415	0.0608
393.741	0.0604
394.067	0.0588
394.394	0.0591
394.72	0.0581
395.046	0.0567
395.372	0.0559
395.698	0.0547
396.024	0.0543
396.35	0.053
396.676	0.0534
397.001	0.0527
397.327	0.0515
397.653	0.0504
397.978	0.0498
398.303	0.0485
398.629	0.0476
398.954	0.0477
399.279	0.047
399.604	0.0464
399.929	0.0457
400.254	0.0452
400.579	0.0445
400.904	0.0437
401.229	0.0436
401.553	0.0423
401.878	0.0423
402.202	0.042
402.527	0.0417
402.851	0.0412
403.175	0.0407
403.5	0.0407
403.824	0.0405
404.148	0.0394
404.472	0.0392
404.796	0.0392
405.119	0.0383
405.443	0.0387
405.767	0.0377
406.09	0.038
406.414	0.0384
406.737	0.0375
407.061	0.038
407.384	0.0374
407.707	0.0368
408.03	0.0376
408.353	0.0369
408.676	0.037
408.999	0.0368
409.322	0.0369
409.645	0.037
409.968	0.0363
410.29	0.0367
410.613	0.0355
410.935	0.0359
411.258	0.0366
411.58	0.0361
411.902	0.0362
412.224	0.0365
412.546	0.0363
412.868	0.0359
413.19	0.0358
413.512	0.0362
413.834	0.0361
414.156	0.0364
414.477	0.0357
414.799	0.0362
415.121	0.0363
415.442	0.0365
415.763	0.0361
416.085	0.0361
416.406	0.0362
416.727	0.0364
417.048	0.0363
417.369	0.036
417.69	0.0355
418.011	0.0361
418.331	0.0364
418.652	0.0366
418.973	0.0371
419.293	0.0365
419.614	0.0366
419.934	0.0362
420.254	0.0368
420.574	0.0359
420.895	0.0366
421.215	0.0363
421.535	0.0358
421.855	0.0364
422.174	0.0357
422.494	0.0367
422.814	0.0372
423.134	0.0368
423.453	0.0367
423.773	0.037
424.092	0.0364
424.411	0.0362
424.731	0.0375
425.05	0.0372
425.369	0.0371
425.688	0.0374
426.007	0.0375
426.326	0.038
426.644	0.038
426.963	0.0382
427.282	0.0386
427.6	0.0376
427.919	0.0373
428.237	0.0376
428.556	0.0386
428.874	0.0377
429.192	0.0381
429.51	0.0381
429.828	0.0382
430.146	0.0383
430.464	0.0382
430.782	0.0379
431.1	0.038
431.418	0.0376
431.735	0.0382
432.053	0.0386
432.37	0.0386
432.688	0.0385
433.005	0.039
433.322	0.0391
433.639	0.0386
433.957	0.0388
434.274	0.0385
434.591	0.0388
434.907	0.0394
435.224	0.0384
435.541	0.039
435.858	0.0395
436.174	0.0393
436.491	0.0393
436.807	0.0392
437.124	0.0388
437.44	0.0379
437.756	0.0386
438.072	0.0387
438.388	0.0386
438.704	0.0392
439.02	0.0396
439.336	0.0382
439.652	0.039
439.968	0.0384
440.283	0.0384
440.599	0.0385
440.914	0.0388
441.23	0.039
441.545	0.0387
441.86	0.038
442.175	0.0387
442.491	0.0383
442.806	0.0381
443.121	0.0388
443.435	0.0381
443.75	0.0381
444.065	0.038
444.38	0.0385
444.694	0.0378
445.009	0.0379
445.323	0.0382
445.638	0.0381
445.952	0.0383
446.266	0.0383
446.58	0.0379
446.894	0.038
447.208	0.039
447.522	0.0381
447.836	0.0369
448.15	0.0371
448.464	0.037
448.777	0.0372
449.091	0.0371
449.404	0.0378
449.718	0.0376
450.031	0.0379
450.345	0.0367
450.658	0.0368
450.971	0.0368
451.284	0.0358
451.597	0.0371
451.91	0.0373
452.223	0.0366
452.535	0.0372
452.848	0.0367
453.161	0.0361
453.473	0.0366
453.786	0.0367
454.098	0.0363
454.411	0.036
454.723	0.0359
455.035	0.036
455.347	0.0363
455.659	0.0363
455.971	0.0362
456.283	0.036
456.595	0.0352
456.907	0.0357
457.218	0.0359
457.53	0.0358
457.841	0.0342
458.153	0.0348
458.464	0.0344
458.776	0.0337
459.087	0.0339
459.398	0.0345
459.709	0.0335
460.02	0.0338
460.331	0.0336
460.642	0.0334
460.953	0.033
461.263	0.0332
461.574	0.0335
461.885	0.0331
462.195	0.0333
462.506	0.0333
462.816	0.0323
463.126	0.0318
463.437	0.0321
463.747	0.0317
464.057	0.0318
464.367	0.0318
464.677	0.0315
464.987	0.0316
465.296	0.0316
465.606	0.0307
465.916	0.0305
466.225	0.03
466.535	0.0302
466.844	0.0295
467.154	0.0298
467.463	0.03
467.772	0.0304
468.081	0.0297
468.39	0.0293
468.699	0.0295
469.008	0.03
469.317	0.0292
469.626	0.0288
469.935	0.0284
470.243	0.029
470.552	0.0292
470.86	0.029
471.169	0.0285
471.477	0.0278
471.785	0.0292
472.093	0.0283
472.402	0.0275
472.71	0.0273
473.018	0.0271
473.326	0.0269
473.633	0.0272
473.941	0.0262
474.249	0.026
474.556	0.0265
474.864	0.0255
475.171	0.0252
475.479	0.025
475.786	0.0262
476.094	0.0254
476.401	0.0258
476.708	0.0246
477.015	0.0254
477.322	0.025
477.629	0.0245
477.936	0.0246
478.242	0.0242
478.549	0.0242
478.856	0.0241
479.162	0.0245
479.469	0.0241
479.775	0.0238
480.081	0.0224
480.388	0.0228
480.694	0.0217
481	0.0229
481.306	0.0226
481.612	0.0225
481.918	0.0219
482.224	0.0223
482.53	0.022
482.835	0.0212
483.141	0.0209
483.446	0.0213
483.752	0.0199
484.057	0.0201
484.363	0.0196
484.668	0.0196
484.973	0.0199
485.278	0.019
485.583	0.019
485.888	0.0189
486.193	0.0189
486.498	0.0182
486.803	0.019
487.107	0.019
487.412	0.0178
487.717	0.0178
488.021	0.0185
488.325	0.0178
488.63	0.0172
488.934	0.0172
489.238	0.0179
489.542	0.0174
489.846	0.0161
490.15	0.0174
490.454	0.017
490.758	0.0167
491.062	0.0162
491.366	0.0164
491.669	0.0159
491.973	0.0156
492.276	0.0162
492.58	0.0146
492.883	0.016
493.186	0.016
493.489	0.0144
493.792	0.0161
494.096	0.0151
494.399	0.0147
494.701	0.0147
495.004	0.0141
495.307	0.0141
495.61	0.0131
495.912	0.0136
496.215	0.0134
496.517	0.0137
496.82	0.0132
497.122	0.0131
497.424	0.0125
497.727	0.0129
498.029	0.0136
498.331	0.0135
498.633	0.0131
498.935	0.0119
499.237	0.0129
499.538	0.0122
499.84	0.012
500.142	0.0124
500.443	0.0124
500.745	0.012
501.046	0.012
501.348	0.0111
501.649	0.0126
501.95	0.0111
502.251	0.0109
502.552	0.0104
502.853	0.0103
503.154	0.0098
503.455	0.01
503.756	0.0105
504.057	0.0106
504.357	0.0098
504.658	0.0103
504.958	0.01
505.259	0.01
505.559	0.0101
505.859	0.009
506.16	0.0094
506.46	0.0099
506.76	0.0094
507.06	0.0099
507.36	0.009
507.66	0.0092
507.96	0.0091
508.259	0.0084
508.559	0.0081
508.859	0.0084
509.158	0.0081
509.457	0.0076
509.757	0.0097
510.056	0.0085
510.355	0.0076
510.655	0.0071
510.954	0.0085
511.253	0.0077
511.552	0.0084
511.851	0.0075
512.149	0.0073
512.448	0.0073
512.747	0.0077
513.045	0.0063
513.344	0.0079
513.642	0.0073
513.941	0.0073
514.239	0.0067
514.537	0.0062
514.836	0.0074
515.134	0.0064
515.432	0.0079
515.73	0.0072
516.028	0.0063
516.326	0.0076
516.623	0.006
516.921	0.0065
517.219	0.0064
517.516	0.0075
517.814	0.0061
518.111	0.0061
518.409	0.0082
518.706	0.0072
519.003	0.0067
519.3	0.0055
519.597	0.0058
519.894	0.0057
520.191	0.0071
520.488	0.0065
520.785	0.0049
521.082	0.0057
521.378	0.0059
521.675	0.0045
521.971	0.0051
522.268	0.0052
522.564	0.0047
522.861	0.0058
523.157	0.0041
523.453	0.0055
523.749	0.0057
524.045	0.0066
524.341	0.0054
524.637	0.0043
524.933	0.0045
525.229	0.0053
525.524	0.0049
525.82	0.0046
526.115	0.0045
526.411	0.0045
526.706	0.0051
527.002	0.0053
527.297	0.0028
527.592	0.0062
527.887	0.0052
528.182	0.0046
528.477	0.0057
528.772	0.0049
529.067	0.005
529.362	0.0053
529.657	0.0042
529.951	0.0047
530.246	0.004
530.54	0.003
530.835	0.0029
531.129	0.0026
531.423	0.0044
531.718	0.0029
532.012	0.0043
532.306	0.0034
532.6	0.0039
532.894	0.0035
533.188	0.0046
533.482	0.0031
533.775	0.0034
534.069	0.0036
534.363	0.0023
534.656	0.0029
534.95	0.0024
535.243	0.0028
535.536	0.0028
535.83	0.0032
536.123	0.002
536.416	0.0025
536.709	0.0019
537.002	0.0042
537.295	0.0027
537.588	0.0038
537.881	0.0027
538.173	0.0025
538.466	0.0024
538.759	0.0027
539.051	0.0016
539.344	0.0022
539.636	0.0023
539.928	0.0028
540.22	0.0022
540.513	0.0026
540.805	0.003
541.097	0.0032
541.389	0.0028
541.681	0.0022
541.972	0.003
542.264	0.0025
542.556	0.0027
542.847	0.0033
543.139	0.0031
543.431	0.0038
543.722	0.0016
544.013	0.0034
544.305	0.0043
544.596	0.004
544.887	0.0026
545.178	0.0028
545.469	0.0025
545.76	0.002
546.051	0.0025
546.342	0.0036
546.632	0.0019
546.923	0.0036
547.214	0.003
547.504	0.0026
547.795	0.0027
548.085	0.0031
548.375	0.0025
548.666	0.0023
548.956	0.0017
549.246	0.0038
549.536	0.0025
549.826	0.0038
550.116	0.0033
550.406	0.0035
550.695	0.0039
550.985	0.0039
551.275	0.0036
551.564	0.0027
551.854	0.0036
552.143	0.0041
552.433	0.0026
552.722	0.0034
553.011	0.0021
553.3	0.004
553.589	0.0024
553.879	0.0018
554.167	0.0033
554.456	0.0035
554.745	0.0021
555.034	0.0025
555.323	0.002
555.611	0.0028
555.9	0.003
556.188	0.0032
556.477	0.0023
556.765	0.0026
557.053	0.0024
557.342	0.0027
557.63	0.0029
557.918	0.0033
558.206	0.0024
558.494	0.004
558.782	0.0028
559.069	0.0035
559.357	0.0037
559.645	0.002
559.932	0.0036
560.22	0.004
560.507	0.0031
560.795	0.003
561.082	0.0025
561.37	0.0027
561.657	0.0031
561.944	0.0036
562.231	0.003
562.518	0.0024
562.805	0.0032
563.092	0.0039
563.379	0.003
563.665	0.0023
563.952	0.0042
564.239	0.0027
564.525	0.0041
564.811	0.0042
565.098	0.0031
565.384	0.0046
565.67	0.0035
565.957	0.0033
566.243	0.0029
566.529	0.0041
566.815	0.0055
567.101	0.0037
567.387	0.0028
567.672	0.0032
567.958	0.0031
568.244	0.0036
568.529	0.0035
568.815	0.0031
569.1	0.0033
569.386	0.0021
569.671	0.003
569.956	0.0029
570.242	0.0025
570.527	0.0037
570.812	0.0031
571.097	0.003
571.382	0.0027
571.666	0.0026
571.951	0.0027
572.236	0.0028
572.521	0.0024
572.805	0.0027
573.09	0.0032
573.374	0.0028
573.659	0.0023
573.943	0.0028
574.227	0.0028
574.511	0.0032
574.795	0.0025
575.079	0.0022
575.363	0.0028
575.647	0.0027
575.931	0.0027
576.215	0.0029
576.499	0.0022
576.782	0.0027
577.066	0.0023
577.349	0.0025
577.633	0.0038
577.916	0.0037
578.2	0.0039
578.483	0.0025
578.766	0.002
579.049	0.0035
579.332	0.0031
579.615	0.0029
579.898	0.0033
580.181	0.0027
580.464	0.0029
580.746	0.0016
581.029	0.0031
581.312	0.0019
581.594	0.0025
581.877	0.0026
582.159	0.0031
582.441	0.0028
582.724	0.0028
583.006	0.0026
583.288	0.0015
583.57	0.0019
583.852	0.0016
584.134	0.002
584.416	0.0031
584.697	0.0026
584.979	0.0028
585.261	0.0028
585.542	0.0018
585.824	0.0022
586.105	0.0033
586.387	0.0022
586.668	0.0023
586.949	0.0026
587.231	0.0021
587.512	0.0031
587.793	0.0024
588.074	0.0023
588.355	0.0029
588.636	0.0038
588.916	0.0031
589.197	0.003
589.478	0.0033
589.758	0.0032
590.039	0.0033
590.319	0.0032
590.6	0.0025
590.88	0.0028
591.16	0.0028
591.441	0.0026
591.721	0.0026
592.001	0.0029
592.281	0.0024
592.561	0.0035
592.841	0.0034
593.12	0.0033
593.4	0.0023
593.68	0.0028
593.959	0.0024
594.239	0.0035
594.518	0.0024
594.798	0.003
595.077	0.0029
595.356	0.0026
595.636	0.0027
595.915	0.0031
596.194	0.0026
596.473	0.0033
596.752	0.0029
